#WL(nm)   %
300.10	-0.028354391
300.28	-0.027714839
300.46	-0.029412502
300.64	-0.027202765
300.82	-0.029194929
301.00	-0.027758371
301.18	-0.027748540
301.36	-0.027731556
301.54	-0.027872540
301.72	-0.027451808
301.90	-0.028217906
302.08	-0.026226748
302.26	-0.026158726
302.44	-0.027259383
302.62	-0.027859978
302.80	-0.027903231
302.98	-0.029425845
303.16	-0.027772648
303.34	-0.027876817
303.52	-0.029443955
303.70	-0.028066359
303.88	-0.027709085
304.06	-0.028529368
304.24	-0.028671976
304.42	-0.028519901
304.60	-0.028235113
304.78	-0.027567957
304.96	-0.026585875
305.14	-0.026510319
305.32	-0.026402991
305.50	-0.025633810
305.68	-0.026264073
305.86	-0.026068354
306.04	-0.027327742
306.22	-0.025028951
306.40	-0.027040748
306.58	-0.026230477
306.76	-0.028486693
306.94	-0.024976883
307.12	-0.021541361
307.30	-0.017077066
307.48	-0.012437535
307.66	-0.016362237
307.84	-0.020580675
308.02	-0.025161598
308.20	-0.026963465
308.38	-0.028093686
308.56	-0.026156889
308.74	-0.029116610
308.92	-0.028189205
309.10	-0.028613137
309.28	-0.029015314
309.46	-0.028718470
309.64	-0.027763460
309.82	-0.029317440
310.00	-0.027555309
310.18	-0.028413948
310.36	-0.028715760
310.54	-0.026405748
310.72	-0.024711423
310.90	-0.021831673
311.08	-0.020890204
311.26	-0.023119478
311.44	-0.026088089
311.62	-0.027719216
311.80	-0.027440887
311.98	-0.028562229
312.16	-0.029147686
312.34	-0.028891260
312.52	-0.029554483
312.70	-0.029115845
312.88	-0.029303413
313.06	-0.030075742
313.24	-0.028707393
313.42	-0.029057046
313.60	-0.028646447
313.78	-0.028073177
313.96	-0.026535712
314.14	-0.023001842
314.32	-0.017753322
314.50	-0.015061527
314.68	-0.018068647
314.86	-0.023292653
315.04	-0.026706057
315.22	-0.027544826
315.40	-0.029140009
315.58	-0.029021502
315.76	-0.029965732
315.94	-0.028774044
316.12	-0.028973332
316.30	-0.028773041
316.48	-0.028535854
316.66	-0.027615225
316.84	-0.028419858
317.02	-0.027463274
317.20	-0.027447090
317.38	-0.028446374
317.56	-0.029048307
317.74	-0.028315362
317.92	-0.029507957
318.10	-0.028343085
318.28	-0.028504813
318.46	-0.030236848
318.64	-0.028247222
318.82	-0.027771320
319.00	-0.029473681
319.18	-0.029607646
319.36	-0.029158629
319.54	-0.027702972
319.72	-0.028482143
319.90	-0.028640879
320.08	-0.028050970
320.26	-0.028796790
320.44	-0.027845308
320.62	-0.027336117
320.80	-0.028856337
320.98	-0.029714495
321.16	-0.029316895
321.34	-0.029790007
321.52	-0.029541200
321.70	-0.029207464
321.88	-0.028924726
322.06	-0.028188253
322.24	-0.028620511
322.42	-0.029709380
322.60	-0.028845895
322.78	-0.029346703
322.96	-0.030340111
323.14	-0.029226480
323.32	-0.028826052
323.50	-0.029904597
323.68	-0.028651601
323.86	-0.028701831
324.04	-0.029477566
324.22	-0.029946402
324.40	-0.030824641
324.58	-0.028987462
324.76	-0.028838599
324.94	-0.028391991
325.12	-0.030014265
325.30	-0.028515706
325.48	-0.028895451
325.66	-0.028759573
325.84	-0.029338812
326.02	-0.028179280
326.20	-0.028740479
326.38	-0.029996404
326.56	-0.029343553
326.74	-0.028966056
326.92	-0.028443931
327.10	-0.028948935
327.28	-0.030256758
327.46	-0.028670760
327.64	-0.029496994
327.82	-0.027729478
328.00	-0.022066101
328.18	-0.013871294
328.36	0.000621303
328.54	0.016308276
328.72	0.032847721
328.90	0.052353192
329.08	0.057488114
329.26	0.038014568
329.44	0.007192599
329.62	-0.019002270
329.80	-0.027188731
329.98	-0.028277721
330.16	-0.030028705
330.34	-0.030269081
330.52	-0.029724624
330.70	-0.029931843
330.88	-0.029839942
331.06	-0.029128091
331.24	-0.028299425
331.42	-0.028294910
331.60	-0.030251086
331.78	-0.029377142
331.96	-0.029397579
332.14	-0.029159274
332.32	-0.028657034
332.50	-0.029134832
332.68	-0.029560069
332.86	-0.028926853
333.04	-0.029503126
333.22	-0.029162664
333.40	-0.028199295
333.58	-0.029648110
333.76	-0.029645115
333.94	-0.029815424
334.12	-0.028999425
334.30	-0.029979888
334.48	-0.029062387
334.66	-0.030110247
334.84	-0.029557128
335.02	-0.029920112
335.20	-0.029659769
335.38	-0.028973663
335.56	-0.028678859
335.74	-0.029836383
335.92	-0.029575203
336.10	-0.029194789
336.28	-0.028800245
336.46	-0.028555550
336.64	-0.029449401
336.82	-0.029596763
337.00	-0.029645339
337.18	-0.029718783
337.36	-0.030296398
337.54	-0.028855391
337.72	-0.029609647
337.90	-0.029099453
338.08	-0.028887080
338.26	-0.029461976
338.44	-0.029263290
338.62	-0.028668074
338.80	-0.029174594
338.98	-0.029528404
339.16	-0.029221937
339.34	-0.029058391
339.52	-0.028261175
339.70	-0.028962301
339.88	-0.029052669
340.06	-0.029088603
340.24	-0.028934821
340.42	-0.028118590
340.60	-0.029860210
340.78	-0.029958721
340.96	-0.030389924
341.14	-0.028683141
341.32	-0.029123103
341.50	-0.028779907
341.68	-0.030461801
341.86	-0.030264262
342.04	-0.028722113
342.22	-0.029258201
342.40	-0.027799854
342.58	-0.028671887
342.76	-0.028971583
342.94	-0.029975347
343.12	-0.029432902
343.30	-0.029061368
343.48	-0.029317927
343.66	-0.028570386
343.84	-0.029636910
344.02	-0.028898753
344.20	-0.029068377
344.38	-0.029521979
344.56	-0.028245492
344.74	-0.029370014
344.92	-0.028669177
345.10	-0.028892171
345.28	-0.029209778
345.46	-0.028841922
345.64	-0.028869411
345.82	-0.028954333
346.00	-0.029269030
346.18	-0.029758561
346.36	-0.028941838
346.54	-0.029114241
346.72	-0.028974170
346.90	-0.028555753
347.08	-0.028810697
347.26	-0.029053766
347.44	-0.028483514
347.62	-0.029095672
347.80	-0.028052067
347.98	-0.030192830
348.16	-0.028278694
348.34	-0.029453885
348.52	-0.028981373
348.70	-0.028372034
348.88	-0.028391147
349.06	-0.028701510
349.24	-0.030284183
349.42	-0.028622247
349.60	-0.029817404
349.78	-0.028094152
349.96	-0.028581757
350.14	-0.029209033
350.32	-0.028321143
350.50	-0.029053755
350.68	-0.028794693
350.86	-0.028347468
351.04	-0.028201204
351.22	-0.029198576
351.40	-0.027914273
351.58	-0.027687382
351.76	-0.029038761
351.94	-0.028914349
352.12	-0.028853513
352.30	-0.029899681
352.48	-0.029765125
352.66	-0.028975138
352.84	-0.027598916
353.02	-0.029586069
353.20	-0.028079519
353.38	-0.028696679
353.56	-0.027800681
353.74	-0.028121861
353.92	-0.028588856
354.10	-0.028068762
354.28	-0.029210513
354.46	-0.029138688
354.64	-0.028777061
354.82	-0.029338079
355.00	-0.029022722
355.18	-0.028723927
355.36	-0.028429231
355.54	-0.028803639
355.72	-0.028950252
355.90	-0.028801918
356.08	-0.028118089
356.26	-0.028973011
356.44	-0.028005946
356.62	-0.028218230
356.80	-0.028687166
356.98	-0.028793525
357.16	-0.028620351
357.34	-0.028719764
357.52	-0.028513528
357.70	-0.028852664
357.88	-0.028781753
358.06	-0.028403053
358.24	-0.029001296
358.42	-0.029276300
358.60	-0.028537137
358.78	-0.028539795
358.96	-0.029037025
359.14	-0.028877856
359.32	-0.028270416
359.50	-0.028437240
359.68	-0.029389769
359.86	-0.028766776
360.04	-0.028375499
360.22	-0.028597770
360.40	-0.028551660
360.58	-0.028382285
360.76	-0.028145185
360.94	-0.028792961
361.12	-0.029064214
361.30	-0.028216962
361.48	-0.028969778
361.66	-0.029675353
361.84	-0.029164258
362.02	-0.028911803
362.20	-0.029427413
362.38	-0.028144199
362.56	-0.029015971
362.74	-0.029307362
362.92	-0.028934753
363.10	-0.028046230
363.28	-0.028915785
363.46	-0.028840598
363.64	-0.028348185
363.82	-0.029350476
364.00	-0.029371670
364.18	-0.027904529
364.36	-0.028018551
364.54	-0.028667102
364.72	-0.028990395
364.90	-0.028779987
365.08	-0.028661711
365.26	-0.027130088
365.44	-0.026597645
365.62	-0.026323166
365.80	-0.024987707
365.98	-0.026326017
366.16	-0.027688971
366.34	-0.028637309
366.52	-0.029040687
366.70	-0.029143237
366.88	-0.027995307
367.06	-0.028172825
367.24	-0.029088907
367.42	-0.028940637
367.60	-0.028651776
367.78	-0.028797477
367.96	-0.028772356
368.14	-0.028606061
368.32	-0.028351732
368.50	-0.028444186
368.68	-0.029213794
368.86	-0.028888270
369.04	-0.029566562
369.22	-0.028874522
369.40	-0.029635658
369.58	-0.028950913
369.76	-0.028619487
369.94	-0.028359631
370.12	-0.029530892
370.30	-0.028124953
370.48	-0.028558791
370.66	-0.027588679
370.84	-0.028539097
371.02	-0.028323926
371.20	-0.027864896
371.38	-0.029121723
371.56	-0.029412946
371.74	-0.028764250
371.92	-0.029379491
372.10	-0.029461961
372.28	-0.028923532
372.46	-0.030176999
372.64	-0.029431578
372.82	-0.028771419
373.00	-0.028203268
373.18	-0.029615682
373.36	-0.028372576
373.54	-0.028768791
373.72	-0.029075254
373.90	-0.028728172
374.08	-0.028952386
374.26	-0.028909685
374.44	-0.029302647
374.62	-0.028995467
374.80	-0.028687948
374.98	-0.028836925
375.16	-0.028800245
375.34	-0.028407963
375.52	-0.028535221
375.70	-0.028864464
375.88	-0.028966498
376.06	-0.029156325
376.24	-0.028971726
376.42	-0.028630346
376.60	-0.028865650
376.78	-0.028324092
376.96	-0.028533725
377.14	-0.028462373
377.32	-0.027115621
377.50	-0.025984045
377.68	-0.023936294
377.86	-0.023410786
378.04	-0.022517150
378.22	-0.023281826
378.40	-0.024813257
378.58	-0.026527528
378.76	-0.027662925
378.94	-0.028112272
379.12	-0.027593385
379.30	-0.027714256
379.48	-0.027813204
379.66	-0.028303105
379.84	-0.029422266
380.02	-0.027939102
380.20	-0.028266635
380.38	-0.027361196
380.56	-0.027740415
380.74	-0.026853403
380.92	-0.026900962
381.10	-0.026681254
381.28	-0.026982173
381.46	-0.026606474
381.64	-0.027031003
381.82	-0.027229194
382.00	-0.026788842
382.18	-0.026697628
382.36	-0.027194211
382.54	-0.027704446
382.72	-0.027273150
382.90	-0.027475262
383.08	-0.028987704
383.26	-0.028187636
383.44	-0.027967783
383.62	-0.028236439
383.80	-0.028271889
383.98	-0.027841883
384.16	-0.028114988
384.34	-0.028439963
384.52	-0.028680099
384.70	-0.028713318
384.88	-0.028888738
385.06	-0.028703315
385.24	-0.028248146
385.42	-0.027688624
385.60	-0.028901868
385.78	-0.028192686
385.96	-0.027967896
386.14	-0.028913660
386.32	-0.027832590
386.50	-0.027657310
386.68	-0.027927002
386.86	-0.026580635
387.04	-0.026455339
387.22	-0.024211943
387.40	-0.023839463
387.58	-0.022827711
387.76	-0.020911349
387.94	-0.021901643
388.12	-0.023338813
388.30	-0.023353789
388.48	-0.025375290
388.66	-0.026732890
388.84	-0.027194690
389.02	-0.028033817
389.20	-0.027343698
389.38	-0.028103892
389.56	-0.028662581
389.74	-0.028731182
389.92	-0.028595500
390.10	-0.028964851
390.28	-0.028552461
390.46	-0.029237082
390.64	-0.028292390
390.82	-0.028953142
391.00	-0.028213931
391.18	-0.029023137
391.36	-0.028869728
391.54	-0.028939901
391.72	-0.028941903
391.90	-0.028727731
392.08	-0.029571358
392.26	-0.028355410
392.44	-0.028651079
392.62	-0.029578628
392.80	-0.029431030
392.98	-0.029020000
393.16	-0.029636990
393.34	-0.028913395
393.52	-0.029454939
393.70	-0.029310122
393.88	-0.029743720
394.06	-0.029843001
394.24	-0.029574212
394.42	-0.029501025
394.60	-0.029452238
394.78	-0.029111024
394.96	-0.028968925
395.14	-0.029319882
395.32	-0.029361516
395.50	-0.029182687
395.68	-0.029097809
395.86	-0.030019604
396.04	-0.029591264
396.22	-0.029493412
396.40	-0.029506493
396.58	-0.030047761
396.76	-0.029285789
396.94	-0.029435838
397.12	-0.029004464
397.30	-0.029379372
397.48	-0.029695211
397.66	-0.029077293
397.84	-0.029266905
398.02	-0.029467203
398.20	-0.029649828
398.38	-0.030317856
398.56	-0.028807033
398.74	-0.029476598
398.92	-0.029372150
399.10	-0.029122861
399.28	-0.029286195
399.46	-0.029545248
399.64	-0.029443281
399.82	-0.029821238
400.00	-0.029381694
400.18	-0.029424010
400.36	-0.029840019
400.54	-0.029774584
400.72	-0.029372688
400.90	-0.028698968
401.08	-0.029912096
401.26	-0.029581649
401.44	-0.029372780
401.62	-0.029777993
401.80	-0.029993160
401.98	-0.029924490
402.16	-0.029619053
402.34	-0.029536627
402.52	-0.029266430
402.70	-0.029299956
402.88	-0.029643688
403.06	-0.029065620
403.24	-0.029803958
403.42	-0.030178107
403.60	-0.029586971
403.78	-0.029233005
403.96	-0.029152760
404.14	-0.030000357
404.32	-0.029151727
404.50	-0.029069507
404.68	-0.029428095
404.86	-0.029969465
405.04	-0.029320952
405.22	-0.029621786
405.40	-0.029157422
405.58	-0.029334676
405.76	-0.029784570
405.94	-0.028832717
406.12	-0.029766724
406.30	-0.029686011
406.48	-0.029362096
406.66	-0.029504279
406.84	-0.029579321
407.02	-0.029651867
407.20	-0.029152276
407.38	-0.029810321
407.56	-0.029356690
407.74	-0.028980907
407.92	-0.029716197
408.10	-0.029314030
408.28	-0.029392071
408.46	-0.029638680
408.64	-0.029719362
408.82	-0.029225973
409.00	-0.028687431
409.18	-0.029064063
409.36	-0.029083420
409.54	-0.029615747
409.72	-0.029584184
409.90	-0.029307188
410.08	-0.029503610
410.26	-0.028382542
410.44	-0.029207449
410.62	-0.028557118
410.80	-0.028796893
410.98	-0.029522533
411.16	-0.029364124
411.34	-0.029814817
411.52	-0.029480029
411.70	-0.029355541
411.88	-0.029534897
412.06	-0.029810468
412.24	-0.029118136
412.42	-0.029600509
412.60	-0.029546544
412.78	-0.028890846
412.96	-0.028917916
413.14	-0.029519936
413.32	-0.029449066
413.50	-0.029135093
413.68	-0.028852344
413.86	-0.028931247
414.04	-0.029147705
414.22	-0.029226853
414.40	-0.029172691
414.58	-0.028651705
414.76	-0.029163089
414.94	-0.029048173
415.12	-0.029355494
415.30	-0.028693506
415.48	-0.028560057
415.66	-0.029082553
415.84	-0.028370537
416.02	-0.028019005
416.20	-0.028420379
416.38	-0.028291371
416.56	-0.027777322
416.74	-0.026841290
416.92	-0.026419144
417.10	-0.024610505
417.28	-0.022038156
417.46	-0.017790053
417.64	-0.011134272
417.82	-0.006991961
418.00	-0.007232491
418.18	-0.011026796
418.36	-0.016534399
418.54	-0.021898003
418.72	-0.024621913
418.90	-0.025516992
419.08	-0.026632898
419.26	-0.028015032
419.44	-0.028330201
419.62	-0.028346479
419.80	-0.028596219
419.98	-0.028085791
420.16	-0.029038761
420.34	-0.028274592
420.52	-0.028709358
420.70	-0.028175704
420.88	-0.028350906
421.06	-0.029072601
421.24	-0.028999347
421.42	-0.028270695
421.60	-0.028610948
421.78	-0.028801812
421.96	-0.028621621
422.14	-0.028629974
422.32	-0.029093586
422.50	-0.028432895
422.68	-0.028751316
422.86	-0.029111043
423.04	-0.029042533
423.22	-0.028330192
423.40	-0.028959842
423.58	-0.028775590
423.76	-0.029012855
423.94	-0.029470023
424.12	-0.028384406
424.30	-0.029103979
424.48	-0.028902674
424.66	-0.028880024
424.84	-0.029099582
425.02	-0.029338617
425.20	-0.028814752
425.38	-0.029366447
425.56	-0.029231044
425.74	-0.029281884
425.92	-0.028963629
426.10	-0.028547928
426.28	-0.028359933
426.46	-0.029413184
426.64	-0.029095516
426.82	-0.028930925
427.00	-0.028879164
427.18	-0.029052509
427.36	-0.029171187
427.54	-0.028827999
427.72	-0.029018557
427.90	-0.028693739
428.08	-0.029102469
428.26	-0.028771212
428.44	-0.028905010
428.62	-0.029014753
428.80	-0.028530523
428.98	-0.028625187
429.16	-0.028883573
429.34	-0.028829867
429.52	-0.029004123
429.70	-0.029069502
429.88	-0.028830603
430.06	-0.028536687
430.24	-0.028823014
430.42	-0.028802630
430.60	-0.029135199
430.78	-0.028737457
430.96	-0.028952915
431.14	-0.028861536
431.32	-0.028491849
431.50	-0.029169325
431.68	-0.028600175
431.86	-0.028897133
432.04	-0.028636917
432.22	-0.028662844
432.40	-0.028826509
432.58	-0.028429782
432.76	-0.028903870
432.94	-0.028638696
433.12	-0.028642721
433.30	-0.028717037
433.48	-0.028508792
433.66	-0.028756883
433.84	-0.028457638
434.02	-0.028612735
434.20	-0.028559370
434.38	-0.028683856
434.56	-0.029007088
434.74	-0.028532002
434.92	-0.028450958
435.10	-0.028345052
435.28	-0.028544353
435.46	-0.028631493
435.64	-0.028367341
435.82	-0.028279899
436.00	-0.028686522
436.18	-0.028683495
436.36	-0.028373079
436.54	-0.028455447
436.72	-0.028351327
436.90	-0.027934581
437.08	-0.028017865
437.26	-0.027758297
437.44	-0.028060585
437.62	-0.027957015
437.80	-0.027234748
437.98	-0.027865801
438.16	-0.027484747
438.34	-0.027275635
438.52	-0.027415715
438.70	-0.027482832
438.88	-0.027106008
439.06	-0.027470611
439.24	-0.026795477
439.42	-0.027738838
439.60	-0.027174167
439.78	-0.027100179
439.96	-0.027459828
440.14	-0.027429555
440.32	-0.027316514
440.50	-0.026783437
440.68	-0.026970427
440.86	-0.027938675
441.04	-0.027166374
441.22	-0.027652089
441.40	-0.027826760
441.58	-0.027690336
441.76	-0.027912028
441.94	-0.028083485
442.12	-0.027726481
442.30	-0.028155573
442.48	-0.028218780
442.66	-0.028118320
442.84	-0.028471965
443.02	-0.028099980
443.20	-0.028546402
443.38	-0.028154310
443.56	-0.027984718
443.74	-0.028025825
443.92	-0.028249566
444.10	-0.028427446
444.28	-0.028220735
444.46	-0.028211979
444.64	-0.028194737
444.82	-0.028173393
445.00	-0.028496964
445.18	-0.028581204
445.36	-0.028212106
445.54	-0.028049510
445.72	-0.028609442
445.90	-0.028414110
446.08	-0.028453225
446.26	-0.028249068
446.44	-0.029013895
446.62	-0.028264873
446.80	-0.028234746
446.98	-0.028504431
447.16	-0.028245052
447.34	-0.028563498
447.52	-0.028424140
447.70	-0.028322695
447.88	-0.028382128
448.06	-0.028436165
448.24	-0.028785620
448.42	-0.028561398
448.60	-0.028615896
448.78	-0.028047081
448.96	-0.028246321
449.14	-0.028468840
449.32	-0.028360423
449.50	-0.028308772
449.68	-0.028500013
449.86	-0.028265297
450.04	-0.027921584
450.22	-0.028332960
450.40	-0.028629022
450.58	-0.028578615
450.76	-0.028195515
450.94	-0.028091727
451.12	-0.028292352
451.30	-0.028297642
451.48	-0.027850023
451.66	-0.027969018
451.84	-0.027641065
452.02	-0.028042618
452.20	-0.027714835
452.38	-0.028066555
452.56	-0.027902434
452.74	-0.028103767
452.92	-0.027673645
453.10	-0.028025795
453.28	-0.028039752
453.46	-0.027757041
453.64	-0.028268475
453.82	-0.027792212
454.00	-0.027882112
454.18	-0.028001569
454.36	-0.028312709
454.54	-0.028274607
454.72	-0.028342824
454.90	-0.027922474
455.08	-0.028011426
455.26	-0.028187653
455.44	-0.028221795
455.62	-0.028076975
455.80	-0.028536407
455.98	-0.028295262
456.16	-0.028339526
456.34	-0.028368169
456.52	-0.028589120
456.70	-0.028577214
456.88	-0.029027745
457.06	-0.028533230
457.24	-0.028393362
457.42	-0.028543111
457.60	-0.028651854
457.78	-0.028408494
457.96	-0.028376205
458.14	-0.028709736
458.32	-0.028244689
458.50	-0.028746054
458.68	-0.028900633
458.86	-0.028644891
459.04	-0.028658070
459.22	-0.028276373
459.40	-0.028700190
459.58	-0.028574659
459.76	-0.028435854
459.94	-0.028787483
460.12	-0.028408753
460.30	-0.028653245
460.48	-0.028553154
460.66	-0.028571265
460.84	-0.028719105
461.02	-0.028941896
461.20	-0.028627463
461.38	-0.029053178
461.56	-0.028996367
461.74	-0.029017746
461.92	-0.028534332
462.10	-0.028339989
462.28	-0.028427213
462.46	-0.028345268
462.64	-0.028905883
462.82	-0.028484749
463.00	-0.028462730
463.18	-0.028493308
463.36	-0.028881595
463.54	-0.028793802
463.72	-0.028596828
463.90	-0.028621608
464.08	-0.028557176
464.26	-0.028516721
464.44	-0.028889921
464.62	-0.028250718
464.80	-0.028443892
464.98	-0.028089138
465.16	-0.028344972
465.34	-0.028452620
465.52	-0.028416587
465.70	-0.027963700
465.88	-0.027980641
466.06	-0.028386701
466.24	-0.028144350
466.42	-0.027749691
466.60	-0.027706172
466.78	-0.028277649
466.96	-0.028045258
467.14	-0.027895527
467.32	-0.027375016
467.50	-0.027064756
467.68	-0.026987921
467.86	-0.027205879
468.04	-0.026384950
468.22	-0.026080152
468.40	-0.025613170
468.58	-0.024874698
468.76	-0.024626940
468.94	-0.023621805
469.12	-0.022557288
469.30	-0.021104295
469.48	-0.020431198
469.66	-0.018110709
469.84	-0.017721334
470.02	-0.017487425
470.20	-0.018532332
470.38	-0.019936416
470.56	-0.021423670
470.74	-0.022952205
470.92	-0.024069620
471.10	-0.024888009
471.28	-0.026036596
471.46	-0.026839191
471.64	-0.026905714
471.82	-0.027580258
472.00	-0.027233565
472.18	-0.027966060
472.36	-0.027930267
472.54	-0.028074326
472.72	-0.028316086
472.90	-0.028103864
473.08	-0.028370885
473.26	-0.028101325
473.44	-0.028574072
473.62	-0.028665107
473.80	-0.028739052
473.98	-0.028720865
474.16	-0.028937202
474.34	-0.028794378
474.52	-0.028390022
474.70	-0.028785257
474.88	-0.028338863
475.06	-0.028928075
475.24	-0.028668329
475.42	-0.028484810
475.60	-0.028759610
475.78	-0.028847154
475.96	-0.028845524
476.14	-0.028911974
476.32	-0.028674480
476.50	-0.028765524
476.68	-0.028702239
476.86	-0.028513150
477.04	-0.028499650
477.22	-0.028508374
477.40	-0.028657215
477.58	-0.028576810
477.76	-0.028633496
477.94	-0.028852766
478.12	-0.028348600
478.30	-0.028600434
478.48	-0.028409980
478.66	-0.028748455
478.84	-0.028444303
479.02	-0.028555200
479.20	-0.028507886
479.38	-0.028585596
479.56	-0.028658608
479.74	-0.028882278
479.92	-0.029149916
480.10	-0.028734831
480.28	-0.028561899
480.46	-0.028513003
480.64	-0.028882472
480.82	-0.028654706
481.00	-0.028565003
481.18	-0.028568512
481.36	-0.028854039
481.54	-0.028865965
481.72	-0.028591108
481.90	-0.029054346
482.08	-0.028414853
482.26	-0.029085800
482.44	-0.028693138
482.62	-0.028677709
482.80	-0.028388895
482.98	-0.028806837
483.16	-0.028666208
483.34	-0.028860688
483.52	-0.029021312
483.70	-0.028533168
483.88	-0.028694930
484.06	-0.028542001
484.24	-0.028663293
484.42	-0.028762763
484.60	-0.028500639
484.78	-0.028661828
484.96	-0.028884184
485.14	-0.028631210
485.32	-0.028520353
485.50	-0.028741578
485.68	-0.028283097
485.86	-0.028423499
486.04	-0.028508715
486.22	-0.028691011
486.40	-0.028547095
486.58	-0.029226614
486.76	-0.028450465
486.94	-0.028503522
487.12	-0.028195383
487.30	-0.028869327
487.48	-0.028776366
487.66	-0.028398307
487.84	-0.028752090
488.02	-0.028760176
488.20	-0.028809117
488.38	-0.028512277
488.56	-0.028496744
488.74	-0.028473435
488.92	-0.028838612
489.10	-0.028931256
489.28	-0.028350551
489.46	-0.028773671
489.64	-0.028723123
489.82	-0.028884394
490.00	-0.028612575
490.18	-0.028487833
490.36	-0.029103903
490.54	-0.028863726
490.72	-0.028582454
490.90	-0.028711671
491.08	-0.028553864
491.26	-0.028666653
491.44	-0.028743278
491.62	-0.028616667
491.80	-0.028404221
491.98	-0.028911507
492.16	-0.028460942
492.34	-0.028792379
492.52	-0.028557479
492.70	-0.028777832
492.88	-0.028615352
493.06	-0.028371640
493.24	-0.028630981
493.42	-0.028557461
493.60	-0.028594427
493.78	-0.028385671
493.96	-0.028553937
494.14	-0.028491750
494.32	-0.028211752
494.50	-0.028587811
494.68	-0.028679665
494.86	-0.028162140
495.04	-0.028667133
495.22	-0.028190188
495.40	-0.028146332
495.58	-0.028004136
495.76	-0.028090173
495.94	-0.028580643
496.12	-0.028607080
496.30	-0.028582014
496.48	-0.028728120
496.66	-0.028392512
496.84	-0.028088400
497.02	-0.027982496
497.20	-0.027856708
497.38	-0.028580625
497.56	-0.028260095
497.74	-0.028114796
497.92	-0.028516389
498.10	-0.028396415
498.28	-0.028068801
498.46	-0.028231304
498.64	-0.028200826
498.82	-0.027956771
499.00	-0.028336026
499.18	-0.027829295
499.36	-0.028291754
499.54	-0.027881153
499.72	-0.028280783
499.90	-0.028207034
500.08	-0.027929563
500.26	-0.027815489
500.44	-0.028166082
500.62	-0.028138338
500.80	-0.027757335
500.98	-0.027855743
501.16	-0.027576949
501.34	-0.027227119
501.52	-0.027383596
501.70	-0.026775789
501.88	-0.026954254
502.06	-0.026909629
502.24	-0.026608229
502.42	-0.026086418
502.60	-0.025735997
502.78	-0.025009286
502.96	-0.024630759
503.14	-0.023014583
503.32	-0.021994464
503.50	-0.021001875
503.68	-0.019193634
503.86	-0.017876169
504.04	-0.016553562
504.22	-0.016455466
504.40	-0.016931022
504.58	-0.018030804
504.76	-0.019065147
504.94	-0.019918192
505.12	-0.021762092
505.30	-0.022905223
505.48	-0.023758017
505.66	-0.024218632
505.84	-0.024973948
506.02	-0.025883326
506.20	-0.025130922
506.38	-0.026257787
506.56	-0.026688175
506.74	-0.026746463
506.92	-0.026858784
507.10	-0.027039487
507.28	-0.027287824
507.46	-0.027161386
507.64	-0.027601797
507.82	-0.027414482
508.00	-0.027722528
508.18	-0.027642693
508.36	-0.027682047
508.54	-0.027943872
508.72	-0.027679330
508.90	-0.027557705
509.08	-0.027889133
509.26	-0.027535655
509.44	-0.027525673
509.62	-0.027844202
509.80	-0.028065074
509.98	-0.027537469
510.16	-0.028019900
510.34	-0.027872669
510.52	-0.027795080
510.70	-0.027944820
510.88	-0.027381876
511.06	-0.028009661
511.24	-0.027875066
511.42	-0.027868621
511.60	-0.027432168
511.78	-0.027685881
511.96	-0.027702414
512.14	-0.027751818
512.32	-0.027587460
512.50	-0.027832232
512.68	-0.027987748
512.86	-0.027424598
513.04	-0.027425976
513.22	-0.027453998
513.40	-0.027769390
513.58	-0.027332626
513.76	-0.027284227
513.94	-0.027161691
514.12	-0.026832717
514.30	-0.027168864
514.48	-0.026798595
514.66	-0.027095387
514.84	-0.026802117
515.02	-0.026978083
515.20	-0.026887024
515.38	-0.026494380
515.56	-0.026146416
515.74	-0.026024427
515.92	-0.026246781
516.10	-0.025608713
516.28	-0.025600594
516.46	-0.025429208
516.64	-0.025348572
516.82	-0.025082316
517.00	-0.024665011
517.18	-0.023769565
517.36	-0.023826284
517.54	-0.023206022
517.72	-0.023003045
517.90	-0.022423597
518.08	-0.021935023
518.26	-0.021724068
518.44	-0.020751869
518.62	-0.020211825
518.80	-0.019195752
518.98	-0.018742103
519.16	-0.018399803
519.34	-0.017404089
519.52	-0.016829086
519.70	-0.016895944
519.88	-0.017347118
520.06	-0.016971154
520.24	-0.017246624
520.42	-0.018267283
520.60	-0.018590240
520.78	-0.019353217
520.96	-0.020052558
521.14	-0.020790787
521.32	-0.021380398
521.50	-0.022679614
521.68	-0.022665853
521.86	-0.023482367
522.04	-0.024214525
522.22	-0.024209803
522.40	-0.024956992
522.58	-0.024634646
522.76	-0.025749011
522.94	-0.025478480
523.12	-0.025960891
523.30	-0.026120080
523.48	-0.025994208
523.66	-0.026429020
523.84	-0.026617143
524.02	-0.027022786
524.20	-0.026869126
524.38	-0.027126331
524.56	-0.026884602
524.74	-0.026815055
524.92	-0.026694410
525.10	-0.026929382
525.28	-0.027458727
525.46	-0.027236823
525.64	-0.027439535
525.82	-0.027252711
526.00	-0.027260784
526.18	-0.027527401
526.36	-0.027396576
526.54	-0.027427031
526.72	-0.027513545
526.90	-0.027670981
527.08	-0.027615044
527.26	-0.027726395
527.44	-0.027537005
527.62	-0.027754312
527.80	-0.027903853
527.98	-0.027680863
528.16	-0.027788946
528.34	-0.027808599
528.52	-0.027424993
528.70	-0.027682323
528.88	-0.028068904
529.06	-0.027842829
529.24	-0.027284203
529.42	-0.028077301
529.60	-0.027261255
529.78	-0.027230978
529.96	-0.027783204
530.14	-0.027754236
530.32	-0.027228883
530.50	-0.028077098
530.68	-0.028078482
530.86	-0.027604850
531.04	-0.028053315
531.22	-0.027478492
531.40	-0.027690239
531.58	-0.027893467
531.76	-0.028002702
531.94	-0.027901281
532.12	-0.027818285
532.30	-0.027792178
532.48	-0.027201926
532.66	-0.027713582
532.84	-0.027334949
533.02	-0.027454548
533.20	-0.027307699
533.38	-0.027423006
533.56	-0.027283531
533.74	-0.027699810
533.92	-0.027469324
534.10	-0.027178595
534.28	-0.027079731
534.46	-0.027085064
534.64	-0.027278418
534.82	-0.027427647
535.00	-0.027324844
535.18	-0.027003666
535.36	-0.026508974
535.54	-0.026917245
535.72	-0.026842823
535.90	-0.026511261
536.08	-0.026235497
536.26	-0.026562199
536.44	-0.026504535
536.62	-0.026263690
536.80	-0.026122957
536.98	-0.026132388
537.16	-0.025981743
537.34	-0.025800115
537.52	-0.025729472
537.70	-0.025960173
537.88	-0.025459223
538.06	-0.025371265
538.24	-0.024991240
538.42	-0.024970857
538.60	-0.025062077
538.78	-0.024784546
538.96	-0.024611725
539.14	-0.024470564
539.32	-0.024367925
539.50	-0.024526225
539.68	-0.024853379
539.86	-0.024356555
540.04	-0.024320595
540.22	-0.024332404
540.40	-0.024658451
540.58	-0.023993401
540.76	-0.024191109
540.94	-0.024490830
541.12	-0.024112351
541.30	-0.024436502
541.48	-0.024596173
541.66	-0.024191391
541.84	-0.024637518
542.02	-0.024455018
542.20	-0.024806373
542.38	-0.025164563
542.56	-0.024791673
542.74	-0.024745179
542.92	-0.024759434
543.10	-0.024950016
543.28	-0.025446562
543.46	-0.025048427
543.64	-0.025330339
543.82	-0.025664642
544.00	-0.025457680
544.18	-0.025986630
544.36	-0.025951257
544.54	-0.025796641
544.72	-0.026092969
544.90	-0.026061343
545.08	-0.026296789
545.26	-0.025974762
545.44	-0.026822867
545.62	-0.026075408
545.80	-0.026518743
545.98	-0.026739372
546.16	-0.026947763
546.34	-0.026944492
546.52	-0.026970677
546.70	-0.027089633
546.88	-0.026831381
547.06	-0.026834765
547.24	-0.027276399
547.42	-0.027133675
547.60	-0.026583243
547.78	-0.026956081
547.96	-0.026857790
548.14	-0.027075265
548.32	-0.027046157
548.50	-0.026836205
548.68	-0.026639540
548.86	-0.027179237
549.04	-0.027073858
549.22	-0.027199989
549.40	-0.026919629
549.58	-0.027248796
549.76	-0.027084237
549.94	-0.026871761
550.12	-0.027199168
550.30	-0.026939860
550.48	-0.026860414
550.66	-0.026941448
550.84	-0.027023779
551.02	-0.026695840
551.20	-0.026885999
551.38	-0.026847361
551.56	-0.026780736
551.74	-0.027065061
551.92	-0.026955413
552.10	-0.026908973
552.28	-0.026741767
552.46	-0.026744107
552.64	-0.026826927
552.82	-0.027352043
553.00	-0.027150096
553.18	-0.027023260
553.36	-0.026344232
553.54	-0.026756138
553.72	-0.027019376
553.90	-0.026834931
554.08	-0.027062628
554.26	-0.026735803
554.44	-0.026399631
554.62	-0.026958937
554.80	-0.026712794
554.98	-0.026397491
555.16	-0.026698587
555.34	-0.026522260
555.52	-0.026640372
555.70	-0.025557945
555.88	-0.026672091
556.06	-0.026830308
556.24	-0.026823245
556.42	-0.026450818
556.60	-0.026446177
556.78	-0.027006043
556.96	-0.026500883
557.14	-0.026666073
557.32	-0.026737506
557.50	-0.026478671
557.68	-0.026770122
557.86	-0.026765699
558.04	-0.026588209
558.22	-0.026700722
558.40	-0.027217565
558.58	-0.026845586
558.76	-0.027081940
558.94	-0.027251424
559.12	-0.026658539
559.30	-0.026868304
559.48	-0.026896363
559.66	-0.026922936
559.84	-0.026771270
560.02	-0.027275892
560.20	-0.026709830
560.38	-0.027002502
560.56	-0.027227318
560.74	-0.027128158
560.92	-0.027004929
561.10	-0.027015593
561.28	-0.026892938
561.46	-0.026959004
561.64	-0.026576646
561.82	-0.026816517
562.00	-0.026534809
562.18	-0.027258487
562.36	-0.026676668
562.54	-0.027009629
562.72	-0.026689546
562.90	-0.026872657
563.08	-0.026768582
563.26	-0.027197031
563.44	-0.026880542
563.62	-0.027069842
563.80	-0.026606785
563.98	-0.027132370
564.16	-0.026809746
564.34	-0.026935712
564.52	-0.026769875
564.70	-0.026797937
564.88	-0.027165847
565.06	-0.026647024
565.24	-0.026688840
565.42	-0.027022604
565.60	-0.026668282
565.78	-0.027468784
565.96	-0.026789989
566.14	-0.027001319
566.32	-0.026512312
566.50	-0.026617829
566.68	-0.026417559
566.86	-0.026619621
567.04	-0.026680814
567.22	-0.026872445
567.40	-0.026685677
567.58	-0.027067684
567.76	-0.026750268
567.94	-0.026900135
568.12	-0.026830457
568.30	-0.026555989
568.48	-0.026479879
568.66	-0.027021224
568.84	-0.026624467
569.02	-0.026784144
569.20	-0.026474945
569.38	-0.026503118
569.56	-0.027047386
569.74	-0.026862241
569.92	-0.026823498
570.10	-0.026761910
570.28	-0.026600864
570.46	-0.026625520
570.64	-0.026946919
570.82	-0.026845600
571.00	-0.026778733
571.18	-0.026503475
571.36	-0.026417227
571.54	-0.026830053
571.72	-0.026311411
571.90	-0.026958928
572.08	-0.026283756
572.26	-0.026373016
572.44	-0.026659757
572.62	-0.026773030
572.80	-0.026696805
572.98	-0.026457760
573.16	-0.026899483
573.34	-0.027211202
573.52	-0.026967857
573.70	-0.027036378
573.88	-0.027026655
574.06	-0.026666664
574.24	-0.026763394
574.42	-0.026592182
574.60	-0.026878571
574.78	-0.026634201
574.96	-0.026616929
575.14	-0.026949277
575.32	-0.026595980
575.50	-0.026397331
575.68	-0.026245968
575.86	-0.026181869
576.04	-0.026212394
576.22	-0.026257958
576.40	-0.025987748
576.58	-0.026197208
576.76	-0.026062001
576.94	-0.026036821
577.12	-0.026230928
577.30	-0.026168298
577.48	-0.025874723
577.66	-0.026170682
577.84	-0.025883824
578.02	-0.026244242
578.20	-0.026458353
578.38	-0.026336800
578.56	-0.026021721
578.74	-0.025852660
578.92	-0.026278399
579.10	-0.026622254
579.28	-0.026623800
579.46	-0.026224092
579.64	-0.026633296
579.82	-0.026570223
580.00	-0.026748670
580.18	-0.026402162
580.36	-0.026600895
580.54	-0.026923375
580.72	-0.026694866
580.90	-0.026792521
581.08	-0.026600529
581.26	-0.026611682
581.44	-0.027305039
581.62	-0.026855839
581.80	-0.026707221
581.98	-0.026410725
582.16	-0.026358927
582.34	-0.026746726
582.52	-0.027010605
582.70	-0.026715437
582.88	-0.027203890
583.06	-0.026488189
583.24	-0.026792470
583.42	-0.026471190
583.60	-0.026999522
583.78	-0.026472729
583.96	-0.026708458
584.14	-0.026714932
584.32	-0.027004583
584.50	-0.026801616
584.68	-0.026888208
584.86	-0.026812550
585.04	-0.026963508
585.22	-0.027022833
585.40	-0.026802734
585.58	-0.027052607
585.76	-0.026489891
585.94	-0.026727121
586.12	-0.026950570
586.30	-0.027015690
586.48	-0.026878104
586.66	-0.026760219
586.84	-0.026863897
587.02	-0.026961477
587.20	-0.026683226
587.38	-0.026563995
587.56	-0.027066600
587.74	-0.026893966
587.92	-0.027122308
588.10	-0.027063040
588.28	-0.026990529
588.46	-0.027392689
588.64	-0.027066698
588.82	-0.026725389
589.00	-0.026825909
589.18	-0.026798630
589.36	-0.026997473
589.54	-0.027037604
589.72	-0.027270859
589.90	-0.027031632
590.08	-0.026420902
590.26	-0.026533576
590.44	-0.027123844
590.62	-0.027131429
590.80	-0.027234402
590.98	-0.026945433
591.16	-0.026518648
591.34	-0.027113905
591.52	-0.026779214
591.70	-0.026643446
591.88	-0.026802450
592.06	-0.027041586
592.24	-0.026676115
592.42	-0.026612585
592.60	-0.026665401
592.78	-0.027059961
592.96	-0.026474498
593.14	-0.026542217
593.32	-0.026938887
593.50	-0.026210764
593.68	-0.026498957
593.86	-0.025906760
594.04	-0.026476026
594.22	-0.026506880
594.40	-0.025841251
594.58	-0.025847476
594.76	-0.025785295
594.94	-0.025657434
595.12	-0.025799405
595.30	-0.025440127
595.48	-0.025506478
595.66	-0.025161888
595.84	-0.025092080
596.02	-0.024952285
596.20	-0.024348177
596.38	-0.023947293
596.56	-0.024525987
596.74	-0.023522761
596.92	-0.023502426
597.10	-0.023554029
597.28	-0.023406671
597.46	-0.023150701
597.64	-0.023276037
597.82	-0.022888174
598.00	-0.022456907
598.18	-0.022331491
598.36	-0.022292260
598.54	-0.022340115
598.72	-0.022205591
598.90	-0.021868413
599.08	-0.022242138
599.26	-0.022194287
599.44	-0.022446478
599.62	-0.022486392
599.80	-0.022607602
599.98	-0.022539539
600.16	-0.022631951
600.34	-0.022684736
600.52	-0.022771390
600.70	-0.023310808
600.88	-0.023116458
601.06	-0.023727041
601.24	-0.023343401
601.42	-0.023452474
601.60	-0.023775695
601.78	-0.023739699
601.96	-0.024180360
602.14	-0.024244245
602.32	-0.024499899
602.50	-0.024542155
602.68	-0.024068240
602.86	-0.024673171
603.04	-0.024642020
603.22	-0.024865113
603.40	-0.024980670
603.58	-0.025009789
603.76	-0.024786994
603.94	-0.024788026
604.12	-0.025290681
604.30	-0.024925401
604.48	-0.025438517
604.66	-0.025465395
604.84	-0.025147755
605.02	-0.025488101
605.20	-0.025316359
605.38	-0.025218451
605.56	-0.025408141
605.74	-0.025371473
605.92	-0.025604380
606.10	-0.025286464
606.28	-0.025445625
606.46	-0.024947379
606.64	-0.025487561
606.82	-0.025377097
607.00	-0.025417056
607.18	-0.025420394
607.36	-0.025760606
607.54	-0.025281807
607.72	-0.025867147
607.90	-0.025422722
608.08	-0.025503876
608.26	-0.025736924
608.44	-0.025326636
608.62	-0.025346838
608.80	-0.025931327
608.98	-0.025384691
609.16	-0.025510157
609.34	-0.025227221
609.52	-0.025537601
609.70	-0.025336372
609.88	-0.025005057
610.06	-0.025478674
610.24	-0.025382141
610.42	-0.024985598
610.60	-0.025338529
610.78	-0.025601363
610.96	-0.025500031
611.14	-0.025685241
611.32	-0.025839068
611.50	-0.025348144
611.68	-0.025547875
611.86	-0.024977900
612.04	-0.025452755
612.22	-0.025397617
612.40	-0.025378462
612.58	-0.025304655
612.76	-0.025416739
612.94	-0.025161123
613.12	-0.025060862
613.30	-0.025330126
613.48	-0.025165992
613.66	-0.025403691
613.84	-0.025415543
614.02	-0.025239782
614.20	-0.025064116
614.38	-0.025245445
614.56	-0.025244575
614.74	-0.025083404
614.92	-0.025262114
615.10	-0.025046140
615.28	-0.024835149
615.46	-0.025109757
615.64	-0.024980994
615.82	-0.024628831
616.00	-0.024966896
616.18	-0.024824124
616.36	-0.024969513
616.54	-0.024689285
616.72	-0.024876004
616.90	-0.024534998
617.08	-0.024861196
617.26	-0.024414383
617.44	-0.024277007
617.62	-0.024106834
617.80	-0.024284871
617.98	-0.024407627
618.16	-0.023791656
618.34	-0.024478560
618.52	-0.024079492
618.70	-0.024361912
618.88	-0.023876272
619.06	-0.024034411
619.24	-0.023566660
619.42	-0.023821909
619.60	-0.023184001
619.78	-0.023389306
619.96	-0.022899054
620.14	-0.022651983
620.32	-0.022664391
620.50	-0.021957643
620.68	-0.022127217
620.86	-0.022167383
621.04	-0.021079479
621.22	-0.020988209
621.40	-0.020346312
621.58	-0.020403538
621.76	-0.019521115
621.94	-0.019603353
622.12	-0.018358899
622.30	-0.018051742
622.48	-0.017813371
622.66	-0.016871536
622.84	-0.016330097
623.02	-0.015736828
623.20	-0.015321216
623.38	-0.014686554
623.56	-0.014706877
623.74	-0.013973223
623.92	-0.013951831
624.10	-0.014114434
624.28	-0.014181940
624.46	-0.014865563
624.64	-0.014952553
624.82	-0.015321897
625.00	-0.015791023
625.18	-0.016312813
625.36	-0.016743517
625.54	-0.017433381
625.72	-0.018475212
625.90	-0.018740516
626.08	-0.019527745
626.26	-0.019598067
626.44	-0.019835899
626.62	-0.020357309
626.80	-0.021005055
626.98	-0.021232571
627.16	-0.020733334
627.34	-0.021613229
627.52	-0.021501295
627.70	-0.022093104
627.88	-0.022515588
628.06	-0.022292819
628.24	-0.022802487
628.42	-0.022796936
628.60	-0.022748265
628.78	-0.022818424
628.96	-0.022694249
629.14	-0.023371439
629.32	-0.023060013
629.50	-0.023297640
629.68	-0.023519740
629.86	-0.023182007
630.04	-0.022969993
630.22	-0.023222165
630.40	-0.023233430
630.58	-0.023279248
630.76	-0.023485795
630.94	-0.023441566
631.12	-0.023526469
631.30	-0.023924656
631.48	-0.023588764
631.66	-0.023633847
631.84	-0.023862198
632.02	-0.023837538
632.20	-0.023862051
632.38	-0.023601137
632.56	-0.023770723
632.74	-0.023833532
632.92	-0.023981197
633.10	-0.023699876
633.28	-0.023877686
633.46	-0.024140665
633.64	-0.023851108
633.82	-0.023932364
634.00	-0.023814345
634.18	-0.024310797
634.36	-0.023701364
634.54	-0.024172915
634.72	-0.024020320
634.90	-0.023846822
635.08	-0.024110507
635.26	-0.023688572
635.44	-0.023721775
635.62	-0.023949429
635.80	-0.023938227
635.98	-0.023649596
636.16	-0.023743367
636.34	-0.023728088
636.52	-0.023970023
636.70	-0.023538463
636.88	-0.023432367
637.06	-0.023753399
637.24	-0.023623878
637.42	-0.023991235
637.60	-0.023629535
637.78	-0.023588544
637.96	-0.023012936
638.14	-0.023460349
638.32	-0.023327474
638.50	-0.023119595
638.68	-0.023217408
638.86	-0.023133393
639.04	-0.022678534
639.22	-0.022859961
639.40	-0.023021273
639.58	-0.022827193
639.76	-0.023035474
639.94	-0.022051919
640.12	-0.021902720
640.30	-0.021894425
640.48	-0.021429511
640.66	-0.021181691
640.84	-0.020656399
641.02	-0.020082997
641.20	-0.019403148
641.38	-0.018831622
641.56	-0.017762357
641.74	-0.016613530
641.92	-0.014892319
642.10	-0.012505270
642.28	-0.010124071
642.46	-0.007358946
642.64	-0.002880094
642.82	0.002089684
643.00	0.008506306
643.18	0.014565960
643.36	0.022056771
643.54	0.026593907
643.72	0.028348923
643.90	0.026462905
644.08	0.020527683
644.26	0.013072294
644.44	0.004749794
644.62	-0.001114318
644.80	-0.006659747
644.98	-0.010874139
645.16	-0.013407843
645.34	-0.016257156
645.52	-0.018197082
645.70	-0.019155163
645.88	-0.020121155
646.06	-0.021013124
646.24	-0.021887016
646.42	-0.022336181
646.60	-0.023204517
646.78	-0.023147406
646.96	-0.023474807
647.14	-0.023781041
647.32	-0.024111662
647.50	-0.024573328
647.68	-0.024912206
647.86	-0.024693061
648.04	-0.024997965
648.22	-0.024691259
648.40	-0.025048910
648.58	-0.025072906
648.76	-0.025143087
648.94	-0.025188260
649.12	-0.025873888
649.30	-0.025610087
649.48	-0.026010023
649.66	-0.025837982
649.84	-0.025800340
650.02	-0.026276769
650.20	-0.025991615
650.38	-0.025545809
650.56	-0.026542807
650.74	-0.026146049
650.92	-0.025873953
651.10	-0.026452146
651.28	-0.026161678
651.46	-0.026383493
651.64	-0.026803255
651.82	-0.026398297
652.00	-0.026466491
652.18	-0.026599720
652.36	-0.026559699
652.54	-0.027050581
652.72	-0.026978843
652.90	-0.026900392
653.08	-0.027228598
653.26	-0.026985142
653.44	-0.027013876
653.62	-0.027214892
653.80	-0.026773453
653.98	-0.027192384
654.16	-0.027055532
654.34	-0.027140340
654.52	-0.027544500
654.70	-0.026954472
654.88	-0.027231107
655.06	-0.027207462
655.24	-0.027306357
655.42	-0.027413072
655.60	-0.027212573
655.78	-0.027460247
655.96	-0.027685368
656.14	-0.027472805
656.32	-0.027483981
656.50	-0.027588651
656.68	-0.027978141
656.86	-0.027698837
657.04	-0.027824767
657.22	-0.027787138
657.40	-0.027655534
657.58	-0.027692245
657.76	-0.028026087
657.94	-0.027620211
658.12	-0.027573850
658.30	-0.027976267
658.48	-0.028079977
658.66	-0.027821437
658.84	-0.027603397
659.02	-0.027768869
659.20	-0.027778922
659.38	-0.028197391
659.56	-0.028390056
659.74	-0.027982559
659.92	-0.028439829
660.10	-0.028101329
660.28	-0.028237462
660.46	-0.028051546
660.64	-0.028148610
660.82	-0.028156625
661.00	-0.028584547
661.18	-0.028044244
661.36	-0.028276853
661.54	-0.028168000
661.72	-0.028886346
661.90	-0.028596181
662.08	-0.028165793
662.26	-0.028540660
662.44	-0.028717337
662.62	-0.028288411
662.80	-0.028843557
662.98	-0.028123913
663.16	-0.028884368
663.34	-0.028737957
663.52	-0.028507074
663.70	-0.028750988
663.88	-0.028303685
664.06	-0.028740207
664.24	-0.028701829
664.42	-0.028336374
664.60	-0.028726190
664.78	-0.028743166
664.96	-0.028606484
665.14	-0.028945325
665.32	-0.028832939
665.50	-0.028602969
665.68	-0.028992740
665.86	-0.029103382
666.04	-0.028794263
666.22	-0.028528728
666.40	-0.028421927
666.58	-0.028887996
666.76	-0.028687658
666.94	-0.028653722
667.12	-0.028815772
667.30	-0.028892310
667.48	-0.028847018
667.66	-0.028712038
667.84	-0.028623119
668.02	-0.028644895
668.20	-0.028933169
668.38	-0.028949833
668.56	-0.029133722
668.74	-0.029089784
668.92	-0.028681399
669.10	-0.029060347
669.28	-0.029100679
669.46	-0.028919781
669.64	-0.028871870
669.82	-0.029299201
670.00	-0.029269105
670.18	-0.029369108
670.36	-0.029250892
670.54	-0.029199261
670.72	-0.028804349
670.90	-0.029127119
671.08	-0.028951664
671.26	-0.028925851
671.44	-0.028869979
671.62	-0.028944135
671.80	-0.029179629
671.98	-0.029067425
672.16	-0.029007735
672.34	-0.028821098
672.52	-0.028932126
672.70	-0.029232478
672.88	-0.029182982
673.06	-0.029073108
673.24	-0.028669115
673.42	-0.028982144
673.60	-0.028634103
673.78	-0.028947610
673.96	-0.028893817
674.14	-0.028932488
674.32	-0.029179543
674.50	-0.029396597
674.68	-0.029100426
674.86	-0.029138321
675.04	-0.028516188
675.22	-0.029119233
675.40	-0.028963935
675.58	-0.028652957
675.76	-0.028837498
675.94	-0.028849026
676.12	-0.028967718
676.30	-0.028809642
676.48	-0.028602077
676.66	-0.028909359
676.84	-0.028342310
677.02	-0.028518386
677.20	-0.028359393
677.38	-0.028809981
677.56	-0.028134739
677.74	-0.028173786
677.92	-0.028559653
678.10	-0.028489813
678.28	-0.028655414
678.46	-0.027954061
678.64	-0.028129254
678.82	-0.027950678
679.00	-0.028149594
679.18	-0.027799219
679.36	-0.027766079
679.54	-0.027435496
679.72	-0.027494814
679.90	-0.027187398
680.08	-0.027497625
680.26	-0.027089499
680.44	-0.026998064
680.62	-0.026851520
680.80	-0.026348010
680.98	-0.026413461
681.16	-0.026310757
681.34	-0.026038356
681.52	-0.025173655
681.70	-0.025484979
681.88	-0.025387181
682.06	-0.025220629
682.24	-0.025038213
682.42	-0.024465388
682.60	-0.024448510
682.78	-0.024111819
682.96	-0.023821382
683.14	-0.023770375
683.32	-0.023558702
683.50	-0.023290599
683.68	-0.023429042
683.86	-0.022820612
684.04	-0.023396542
684.22	-0.022699228
684.40	-0.023403434
684.58	-0.023260918
684.76	-0.023234505
684.94	-0.023280071
685.12	-0.023148434
685.30	-0.023490965
685.48	-0.023120519
685.66	-0.022907386
685.84	-0.023794722
686.02	-0.023475701
686.20	-0.024017314
686.38	-0.023687609
686.56	-0.024045764
686.74	-0.024141250
686.92	-0.024091791
687.10	-0.024077689
687.28	-0.024272360
687.46	-0.025223982
687.64	-0.025275556
687.82	-0.024973566
688.00	-0.025348015
688.18	-0.024826283
688.36	-0.025324963
688.54	-0.025313808
688.72	-0.025453342
688.90	-0.025707966
689.08	-0.026029438
689.26	-0.026179675
689.44	-0.025910595
689.62	-0.026108794
689.80	-0.025504367
689.98	-0.025652686
690.16	-0.025559094
690.34	-0.026057137
690.52	-0.025771724
690.70	-0.025754241
690.88	-0.026154688
691.06	-0.026050309
691.24	-0.026269102
691.42	-0.026180936
691.60	-0.025855619
691.78	-0.026257526
691.96	-0.026272397
692.14	-0.026236972
692.32	-0.025908617
692.50	-0.026501622
692.68	-0.026222806
692.86	-0.026093848
693.04	-0.026263695
693.22	-0.025855513
693.40	-0.026005352
693.58	-0.026267990
693.76	-0.026041508
693.94	-0.025953844
694.12	-0.025815647
694.30	-0.025508821
694.48	-0.025838060
694.66	-0.025651874
694.84	-0.025379773
695.02	-0.025174895
695.20	-0.025515554
695.38	-0.026093770
695.56	-0.025690909
695.74	-0.025292171
695.92	-0.025069192
696.10	-0.025357077
696.28	-0.025272856
696.46	-0.025174720
696.64	-0.025389815
696.82	-0.025526736
697.00	-0.024854060
697.18	-0.024766294
697.36	-0.024898795
697.54	-0.024829991
697.72	-0.024808606
697.90	-0.025441503
698.08	-0.024443364
698.26	-0.024042174
698.44	-0.024609637
698.62	-0.024924183
698.80	-0.024222460
698.98	-0.024239136
699.16	-0.023899967
699.34	-0.023869146
699.52	-0.024336958
699.70	-0.024309400
699.88	-0.024767177
700.06	-0.024081016
700.24	-0.024210511
700.42	-0.024376387
700.60	-0.024114124
700.78	-0.024258476
700.96	-0.024182633
701.14	-0.024689935
701.32	-0.024422262
701.50	-0.024132466
701.68	-0.024743740
701.86	-0.024000421
702.04	-0.024597751
702.22	-0.024899060
702.40	-0.025084009
702.58	-0.024903880
702.76	-0.025153883
702.94	-0.024986945
703.12	-0.025035668
703.30	-0.025133580
703.48	-0.025382271
703.66	-0.025715798
703.84	-0.025481015
704.02	-0.025718080
704.20	-0.025538081
704.38	-0.025753947
704.56	-0.026096361
704.74	-0.026355524
704.92	-0.026068257
705.10	-0.026582394
705.28	-0.026797658
705.46	-0.026601672
705.64	-0.027268954
705.82	-0.026503263
706.00	-0.027005872
706.18	-0.026437556
706.36	-0.026862066
706.54	-0.026980927
706.72	-0.026885493
706.90	-0.027311558
707.08	-0.027678151
707.26	-0.026976349
707.44	-0.027181843
707.62	-0.027111007
707.80	-0.027545827
707.98	-0.027596310
708.16	-0.027865773
708.34	-0.027183102
708.52	-0.027679972
708.70	-0.028104957
708.88	-0.028020997
709.06	-0.027540751
709.24	-0.027867788
709.42	-0.028257880
709.60	-0.027669510
709.78	-0.027763247
709.96	-0.027727645
710.14	-0.027951458
710.32	-0.028304569
710.50	-0.028586620
710.68	-0.027948298
710.86	-0.028170282
711.04	-0.028178841
711.22	-0.028556962
711.40	-0.027936056
711.58	-0.028240608
711.76	-0.028173774
711.94	-0.028244702
712.12	-0.027555643
712.30	-0.028689764
712.48	-0.027635248
712.66	-0.028136533
712.84	-0.028266348
713.02	-0.028156649
713.20	-0.027772153
713.38	-0.028664535
713.56	-0.028510023
713.74	-0.028066259
713.92	-0.028825821
714.10	-0.028100573
714.28	-0.028847629
714.46	-0.028406706
714.64	-0.028936256
714.82	-0.029000387
715.00	-0.028090082
715.18	-0.028401898
715.36	-0.028781433
715.54	-0.028338170
715.72	-0.028399061
715.90	-0.028740983
716.08	-0.027770229
716.26	-0.028301589
716.44	-0.028549770
716.62	-0.029109735
716.80	-0.029021729
716.98	-0.028280376
717.16	-0.028766129
717.34	-0.028344201
717.52	-0.027886705
717.70	-0.029046977
717.88	-0.028298216
718.06	-0.028526763
718.24	-0.028412716
718.42	-0.028655294
718.60	-0.027593508
718.78	-0.028771130
718.96	-0.028498467
719.14	-0.029120492
719.32	-0.029062895
719.50	-0.027885279
719.68	-0.027887130
719.86	-0.028795423
720.04	-0.027922826
720.22	-0.028458336
720.40	-0.028145919
720.58	-0.028114414
720.76	-0.028439783
720.94	-0.028309062
721.12	-0.028175261
721.30	-0.028763676
721.48	-0.028184598
721.66	-0.028363932
721.84	-0.028410045
722.02	-0.028642433
722.20	-0.028753269
722.38	-0.028842412
722.56	-0.028691310
722.74	-0.028795755
722.92	-0.028411042
723.10	-0.028623411
723.28	-0.028525230
723.46	-0.028276525
723.64	-0.028194942
723.82	-0.028730100
724.00	-0.028513057
724.18	-0.028751494
724.36	-0.028034547
724.54	-0.028025225
724.72	-0.028055336
724.90	-0.027909113
725.08	-0.027556831
725.26	-0.028658001
725.44	-0.028240172
725.62	-0.028345952
725.80	-0.029133689
725.98	-0.028712343
726.16	-0.028538615
726.34	-0.027729135
726.52	-0.028750865
726.70	-0.028195014
726.88	-0.028286450
727.06	-0.028370501
727.24	-0.028597945
727.42	-0.027697166
727.60	-0.028243884
727.78	-0.028267605
727.96	-0.029328672
728.14	-0.028491879
728.32	-0.028065601
728.50	-0.028659130
728.68	-0.028194970
728.86	-0.028800726
729.04	-0.028371036
729.22	-0.027991323
729.40	-0.028411185
729.58	-0.028123913
729.76	-0.028085848
729.94	-0.028416328
730.12	-0.028561059
730.30	-0.027721744
730.48	-0.028743973
730.66	-0.028060205
730.84	-0.028788490
731.02	-0.027917862
731.20	-0.028190777
731.38	-0.028234798
731.56	-0.028628271
731.74	-0.028306033
731.92	-0.028263588
732.10	-0.027395625
732.28	-0.028226949
732.46	-0.028308664
732.64	-0.028664690
732.82	-0.027951257
733.00	-0.028076727
733.18	-0.028192826
733.36	-0.028591860
733.54	-0.028598981
733.72	-0.028444804
733.90	-0.028636374
734.08	-0.027736453
734.26	-0.028310064
734.44	-0.028594200
734.62	-0.028297378
734.80	-0.028387116
734.98	-0.028858861
735.16	-0.028814087
735.34	-0.028233767
735.52	-0.028448878
735.70	-0.028324822
735.88	-0.028237658
736.06	-0.028197668
736.24	-0.028274767
736.42	-0.028587613
736.60	-0.028275548
736.78	-0.028525103
736.96	-0.028377436
737.14	-0.028165797
737.32	-0.028120643
737.50	-0.027594944
737.68	-0.029102197
737.86	-0.028631113
738.04	-0.028547522
738.22	-0.028387515
738.40	-0.027829973
738.58	-0.028744742
738.76	-0.028343562
738.94	-0.028746415
739.12	-0.028628416
739.30	-0.028213585
739.48	-0.028408913
739.66	-0.028601769
739.84	-0.028299173
740.02	-0.028401794
740.20	-0.028236613
740.38	-0.028312402
740.56	-0.028628953
740.74	-0.028305961
740.92	-0.028312748
741.10	-0.028195227
741.28	-0.028204216
741.46	-0.027859062
741.64	-0.028142449
741.82	-0.028467428
742.00	-0.028687861
742.18	-0.028847992
742.36	-0.028481623
742.54	-0.028051378
742.72	-0.028531972
742.90	-0.028670836
743.08	-0.027521880
743.26	-0.028635712
743.44	-0.027855666
743.62	-0.027638555
743.80	-0.028025601
743.98	-0.028517935
744.16	-0.027858581
744.34	-0.027909109
744.52	-0.028438497
744.70	-0.028198704
744.88	-0.028667640
745.06	-0.027849991
745.24	-0.028038161
745.42	-0.028191734
745.60	-0.027943961
745.78	-0.028268982
745.96	-0.027935529
746.14	-0.028707040
746.32	-0.028417105
746.50	-0.027653042
746.68	-0.028197389
746.86	-0.027881423
747.04	-0.027896315
747.22	-0.027978074
747.40	-0.027464170
747.58	-0.027945960
747.76	-0.028366467
747.94	-0.028385330
748.12	-0.028330766
748.30	-0.027922980
748.48	-0.027779806
748.66	-0.028707303
748.84	-0.028501343
749.02	-0.028075196
749.20	-0.027371421
749.38	-0.027597712
749.56	-0.028355198
749.74	-0.028275894
749.92	-0.027507115
750.10	-0.027960436
750.28	-0.028118558
750.46	-0.027939470
750.64	-0.028263427
750.82	-0.028006515
751.00	-0.027394729
751.18	-0.027606409
751.36	-0.027845111
751.54	-0.027631322
751.72	-0.027385317
751.90	-0.028086051
752.08	-0.027958592
752.26	-0.028400753
752.44	-0.027761381
752.62	-0.028000776
752.80	-0.027163740
752.98	-0.027461851
753.16	-0.027961966
753.34	-0.027747732
753.52	-0.026828967
753.70	-0.027489502
753.88	-0.027823189
754.06	-0.027887415
754.24	-0.026659906
754.42	-0.027653938
754.60	-0.027552212
754.78	-0.026992604
754.96	-0.027893819
755.14	-0.027186971
755.32	-0.027181318
755.50	-0.027860824
755.68	-0.027507797
755.86	-0.027550245
756.04	-0.027653499
756.22	-0.028420478
756.40	-0.027243277
756.58	-0.027146269
756.76	-0.026649103
756.94	-0.027508903
757.12	-0.027000817
757.30	-0.027396515
757.48	-0.027224984
757.66	-0.027084474
757.84	-0.027137399
758.02	-0.026618388
758.20	-0.026063720
758.38	-0.026945595
758.56	-0.026571848
758.74	-0.027070204
758.92	-0.026896147
759.10	-0.027046144
759.28	-0.026652316
759.46	-0.026535863
759.64	-0.027543461
759.82	-0.026565919
760.00	-0.026467117
760.18	-0.026286941
760.36	-0.026111066
760.54	-0.027325688
760.72	-0.026246503
760.90	-0.026873607
761.08	-0.026195705
761.26	-0.026093481
761.44	-0.025886681
761.62	-0.025924103
761.80	-0.025845515
761.98	-0.025193185
762.16	-0.025910610
762.34	-0.025844004
762.52	-0.025325352
762.70	-0.025573477
762.88	-0.023755293
763.06	-0.024571758
763.24	-0.024678553
763.42	-0.023547523
763.60	-0.024359090
763.78	-0.024204494
763.96	-0.024108915
764.14	-0.023886126
764.32	-0.023740364
764.50	-0.023482211
764.68	-0.022758210
764.86	-0.023436585
765.04	-0.022506315
765.22	-0.022212911
765.40	-0.022062752
765.58	-0.022056555
765.76	-0.021749366
765.94	-0.022072863
766.12	-0.020894624
766.30	-0.021333504
766.48	-0.021940213
766.66	-0.020388823
766.84	-0.020043461
767.02	-0.019458227
767.20	-0.018603608
767.38	-0.018355008
767.56	-0.018409468
767.74	-0.017631454
767.92	-0.016862068
768.10	-0.016794244
768.28	-0.017560797
768.46	-0.015816918
768.64	-0.015294451
768.82	-0.016298983
769.00	-0.014037763
769.18	-0.013541497
769.36	-0.013600230
769.54	-0.013056002
769.72	-0.011308370
769.90	-0.010229195
770.08	-0.010399772
770.26	-0.009817068
770.44	-0.007614749
770.62	-0.007860024
770.80	-0.006197245
770.98	-0.006392890
771.16	-0.005177098
771.34	-0.005272479
771.52	-0.003776762
771.70	-0.004057772
771.88	-0.002095482
772.06	-0.002489037
772.24	-0.001962023
772.42	0.000260272
772.60	-0.000320316
772.78	0.000265093
772.96	-0.000205157
773.14	0.001185801
773.32	0.001914741
773.50	0.001580012
773.68	0.001219649
773.86	0.001339148
774.04	0.002235539
774.22	0.001595885
774.40	0.001583379
774.58	0.000918618
774.76	0.002072560
774.94	0.002056452
775.12	0.002967418
775.30	0.001709442
775.48	0.000943765
775.66	0.001159554
775.84	0.000640851
776.02	0.000162389
776.20	-0.000376966
776.38	0.000364218
776.56	-0.000959187
776.74	-0.001063500
776.92	-0.001570531
777.10	-0.000739326
777.28	-0.001905372
777.46	-0.001238821
777.64	-0.002601514
777.82	-0.002160984
778.00	-0.003519368
778.18	-0.004373755
778.36	-0.004322183
778.54	-0.004589745
778.72	-0.004717456
778.90	-0.005499729
779.08	-0.004245135
779.26	-0.005187364
779.44	-0.005092716
779.62	-0.004715465
779.80	-0.006540585
779.98	-0.006158672
780.16	-0.006904401
780.34	-0.006366767
780.52	-0.005831925
780.70	-0.006238831
780.88	-0.007538301
781.06	-0.006723747
781.24	-0.007924962
781.42	-0.007115376
781.60	-0.008454174
781.78	-0.007516764
781.96	-0.008321170
782.14	-0.009047707
782.32	-0.008071645
782.50	-0.008403566
782.68	-0.008678653
782.86	-0.008241262
783.04	-0.008966913
783.22	-0.008491964
783.40	-0.009126449
783.58	-0.008206734
783.76	-0.008568160
783.94	-0.009603286
784.12	-0.008765039
784.30	-0.009364499
784.48	-0.009592185
784.66	-0.008483391
784.84	-0.009369602
785.02	-0.008887351
785.20	-0.009352902
785.38	-0.008314962
785.56	-0.008324130
785.74	-0.008290906
785.92	-0.008580828
786.10	-0.007341643
786.28	-0.008575481
786.46	-0.008447275
786.64	-0.007960325
786.82	-0.008969941
787.00	-0.008061408
787.18	-0.008211927
787.36	-0.007972512
787.54	-0.008559613
787.72	-0.007768219
787.90	-0.008132931
788.08	-0.007362333
788.26	-0.008319463
788.44	-0.008144936
788.62	-0.007695980
788.80	-0.007127426
788.98	-0.007699382
789.16	-0.007126219
789.34	-0.006783836
789.52	-0.006701730
789.70	-0.006675371
789.88	-0.006318630
790.06	-0.005160667
790.24	-0.007231923
790.42	-0.004624453
790.60	-0.005820683
790.78	-0.005438046
790.96	-0.004927258
791.14	-0.005644750
791.32	-0.004797364
791.50	-0.004026569
791.68	-0.004153789
791.86	-0.002671750
792.04	-0.003755165
792.22	-0.003932906
792.40	-0.002456773
792.58	-0.001842189
792.76	-0.000827286
792.94	-0.001716780
793.12	0.000498619
793.30	-0.001168929
793.48	-0.000639039
793.66	0.001536858
793.84	0.001133185
794.02	0.000725680
794.20	0.001438653
794.38	0.000475359
794.56	0.003413812
794.74	0.002527418
794.92	0.004469308
795.10	0.003706089
795.28	0.004986546
795.46	0.005339439
795.64	0.005593841
795.82	0.006928071
796.00	0.006425530
796.18	0.007097385
796.36	0.009283327
796.54	0.008263115
796.72	0.009362590
796.90	0.010127775
797.08	0.011550800
797.26	0.012706152
797.44	0.012801979
797.62	0.014714661
797.80	0.016339516
797.98	0.015198501
798.16	0.016851207
798.34	0.019032698
798.52	0.017703839
798.70	0.019742269
798.88	0.020324634
799.06	0.021644918
799.24	0.022648970
799.42	0.024130082
799.60	0.027621847
799.78	0.027442634
799.96	0.027416574
800.14	0.028111331
800.32	0.030142762
800.50	0.031465806
800.68	0.034486603
800.86	0.034795865
801.04	0.038935162
801.22	0.039313320
801.40	0.040843703
801.58	0.040879957
801.76	0.042468511
801.94	0.047212839
802.12	0.045366511
802.30	0.051234476
802.48	0.053468399
802.66	0.054525707
802.84	0.056784652
803.02	0.060524985
803.20	0.061878975
803.38	0.064886697
803.56	0.067322165
803.74	0.069760308
803.92	0.074739583
804.10	0.077568561
804.28	0.079704404
804.46	0.084326155
804.64	0.088296816
804.82	0.089033708
805.00	0.094202816
805.18	0.097109899
805.36	0.100021601
805.54	0.106609657
805.72	0.109049477
805.90	0.114574939
806.08	0.119769014
806.26	0.124995850
806.44	0.129459709
806.62	0.132931933
806.80	0.139963925
806.98	0.146608517
807.16	0.152277023
807.34	0.161162794
807.52	0.165180832
807.70	0.170361966
807.88	0.179257184
808.06	0.186701343
808.24	0.199062616
808.42	0.201387495
808.60	0.211875483
808.78	0.221534729
808.96	0.228940725
809.14	0.242845371
809.32	0.250868946
809.50	0.262859911
809.68	0.272554368
809.86	0.282275736
810.04	0.298573375
810.22	0.311430931
810.40	0.321939439
810.58	0.342271268
810.76	0.354421139
810.94	0.369030714
811.12	0.383048892
811.30	0.402271330
811.48	0.417988658
811.66	0.442010313
811.84	0.459397405
812.02	0.483463019
812.20	0.507089019
812.38	0.529611409
812.56	0.556475222
812.74	0.578221440
812.92	0.609472811
813.10	0.639245212
813.28	0.663754761
813.46	0.697684050
813.64	0.732336938
813.82	0.773307979
814.00	0.806329846
814.18	0.839743495
814.36	0.883464336
814.54	0.930052042
814.72	0.980855167
814.90	1.037566423
815.08	1.085974574
815.26	1.139567614
815.44	1.192535043
815.62	1.259166598
815.80	1.330992222
815.98	1.399510264
816.16	1.464040279
816.34	1.547617435
816.52	1.632178783
816.70	1.730737448
816.88	1.825583220
817.06	1.931888580
817.24	2.025602102
817.42	2.142864943
817.60	2.265379667
817.78	2.384868145
817.96	2.541136503
818.14	2.679556608
818.32	2.833617449
818.50	2.991895676
818.68	3.168279648
818.86	3.365166903
819.04	3.573415041
819.22	3.784877539
819.40	4.003958225
819.58	4.249045849
819.76	4.508646011
819.94	9.988381386
820.12	10.572635650
820.30	11.234433170
820.48	11.882038120
820.66	12.759513850
820.84	13.427680970
821.02	14.198577880
821.20	14.978636740
821.38	15.901754380
821.56	16.920692440
821.74	17.698846820
821.92	18.683366780
822.10	19.619968410
822.28	20.881822590
822.46	22.143886570
822.64	23.146768570
822.82	24.361314770
823.00	25.415580750
823.18	26.836645130
823.36	28.180385590
823.54	29.402647020
823.72	30.800977710
823.90	32.088573460
824.08	33.906875610
824.26	35.299617770
824.44	36.768711090
824.62	38.302589420
824.80	39.783824920
824.98	41.628776550
825.16	42.993495940
825.34	44.603271480
825.52	46.154567720
825.70	47.954093930
825.88	49.983173370
826.06	51.372016910
826.24	53.046478270
826.42	54.637264250
826.60	56.440971370
826.78	58.231281280
826.96	59.749610900
827.14	61.417434690
827.32	62.805778500
827.50	64.821533200
827.68	66.475929260
827.86	67.992607120
828.04	69.576988220
828.22	70.883888240
828.40	72.672218320
828.58	74.033363340
828.76	75.380447390
828.94	76.771652220
829.12	78.088531490
829.30	79.712753300
829.48	80.801963810
829.66	81.994827270
829.84	83.118011470
830.02	84.299156190
830.20	85.467170720
830.38	86.355766300
830.56	87.311546330
830.74	88.151138310
830.92	89.185989380
831.10	90.092170720
831.28	90.767654420
831.46	91.521194460
831.64	92.099571230
831.82	92.825576780
832.00	93.409385680
832.18	93.914955140
832.36	94.416381840
832.54	94.837890630
832.72	95.342292790
832.90	95.712776180
833.08	96.035873410
833.26	96.333854680
833.44	96.605514530
833.62	96.890014650
833.80	97.066963200
833.98	97.262527470
834.16	97.406967160
834.34	97.561035160
834.52	97.709564210
834.70	97.794937130
834.88	97.882301330
835.06	97.942596440
835.24	98.010688780
835.42	98.060646060
835.60	98.089202880
835.78	98.120246890
835.96	98.141952510
836.14	98.165794370
836.32	98.185310360
836.50	98.186836240
836.68	98.202949520
836.86	98.217033390
837.04	98.219161990
837.22	98.229164120
837.40	98.238449100
837.58	98.250076290
837.76	98.258148190
837.94	98.272224430
838.12	98.298835750
838.30	98.314300540
838.48	98.331619260
838.66	98.358078000
838.84	98.380455020
839.02	98.414619450
839.20	98.434356690
839.38	98.463981630
839.56	98.501579280
839.74	98.544708250
839.92	98.572303770
840.10	98.613426210
840.28	98.646667480
840.46	98.694587710
840.64	98.728027340
840.82	98.769805910
841.00	98.808303830
841.18	98.840507510
841.36	98.903404240
841.54	98.935768130
841.72	98.965560910
841.90	99.014778140
842.08	99.053108220
842.26	99.083343510
842.44	99.117370610
842.62	99.145912170
842.80	99.192390440
842.98	99.214675900
843.16	99.249061580
843.34	99.273559570
843.52	99.302711490
843.70	99.315727230
843.88	99.347930910
844.06	99.362060550
844.24	99.381668090
844.42	99.398437500
844.60	99.400108340
844.78	99.422279360
844.96	99.434654240
845.14	99.453422550
845.32	99.454460140
845.50	99.457153320
845.68	99.464706420
845.86	99.463302610
846.04	99.463752750
846.22	99.461326600
846.40	99.460548400
846.58	99.451431270
846.76	99.457199100
846.94	99.452445980
847.12	99.447036740
847.30	99.433578490
847.48	99.430976870
847.66	99.416397090
847.84	99.407875060
848.02	99.393287660
848.20	99.391906740
848.38	99.376144410
848.56	99.367500310
848.74	99.354469300
848.92	99.344764710
849.10	99.330322270
849.28	99.318946840
849.46	99.308898930
849.64	99.294120790
849.82	99.285873410
850.00	99.267646790
850.18	99.261039730
850.36	99.241348270
850.54	99.234619140
850.72	99.232536320
850.90	99.217697140
851.08	99.203422550
851.26	99.207801820
851.44	99.191467290
851.62	99.188079830
851.80	99.175788880
851.98	99.162849430
852.16	99.167610170
852.34	99.164192200
852.52	99.158966060
852.70	99.158264160
852.88	99.162139890
853.06	99.155967710
853.24	99.155113220
853.42	99.150779720
853.60	99.153038020
853.78	99.155845640
853.96	99.152542110
854.14	99.152839660
854.32	99.155273440
854.50	99.161186220
854.68	99.166015630
854.86	99.161888120
855.04	99.172767640
855.22	99.179199220
855.40	99.175468440
855.58	99.175865170
855.76	99.184265140
855.94	99.182151790
856.12	99.203094480
856.30	99.206550600
856.48	99.214065550
856.66	99.213027950
856.84	99.223258970
857.02	99.222267150
857.20	99.234680180
857.38	99.242881770
857.56	99.239891050
857.74	99.243125920
857.92	99.251602170
858.10	99.260284420
858.28	99.257865910
858.46	99.267478940
858.64	99.266708370
858.82	99.270355220
859.00	99.279800420
859.18	99.272529600
859.36	99.278152470
859.54	99.281837460
859.72	99.278678890
859.90	99.288543700
860.08	99.279281620
860.26	99.281600950
860.44	99.282073970
860.62	99.283813480
860.80	99.281494140
860.98	99.287231450
861.16	99.281867980
861.34	99.276466370
861.52	99.275764470
861.70	99.272026060
861.88	99.263618470
862.06	99.259605410
862.24	99.256980900
862.42	99.252441410
862.60	99.240104680
862.78	99.245811460
862.96	99.222793580
863.14	99.219848630
863.32	99.229377750
863.50	99.211349490
863.68	99.206100460
863.86	99.200439450
864.04	99.189605710
864.22	99.189010620
864.40	99.173591610
864.58	99.165397640
864.76	99.157867430
864.94	99.147193910
865.12	99.140914920
865.30	99.127349850
865.48	99.110023500
865.66	99.116104130
865.84	99.106018070
866.02	99.096061710
866.20	99.089347840
866.38	99.077339170
866.56	99.065193180
866.74	99.062019350
866.92	99.049736020
867.10	99.044738770
867.28	99.029609680
867.46	99.024734500
867.64	99.014022830
867.82	99.006217960
868.00	99.003585820
868.18	98.996345520
868.36	98.984405520
868.54	98.986679080
868.72	98.972068790
868.90	98.965927120
869.08	98.962425230
869.26	98.956207280
869.44	98.960968020
869.62	98.955947880
869.80	98.955665590
869.98	98.953079220
870.16	98.948181150
870.34	98.946006770
870.52	98.942512510
870.70	98.944053650
870.88	98.945419310
871.06	98.944053650
871.24	98.946319580
871.42	98.948196410
871.60	98.940834050
871.78	98.953735350
871.96	98.955802920
872.14	98.950828550
872.32	98.960227970
872.50	98.971565250
872.68	98.968315120
872.86	98.974319460
873.04	98.976455690
873.22	98.983093260
873.40	98.989540100
873.58	98.991813660
873.76	98.996147160
873.94	99.004425050
874.12	99.021728520
874.30	99.026290890
874.48	99.027893070
874.66	99.041091920
874.84	99.042884830
875.02	99.055007930
875.20	99.065902710
875.38	99.071601870
875.56	99.084732060
875.74	99.098175050
875.92	99.109169010
876.10	99.126670840
876.28	99.138519290
876.46	99.141677860
876.64	99.157012940
876.82	99.166442870
877.00	99.178024290
877.18	99.188652040
877.36	99.196121220
877.54	99.223297120
877.72	99.216087340
877.90	99.238708500
878.08	99.257202150
878.26	99.257682800
878.44	99.274368290
878.62	99.285606380
878.80	99.295211790
878.98	99.312751770
879.16	99.317184450
879.34	99.331199650
879.52	99.340942380
879.70	99.356094360
879.88	99.370185850
880.06	99.372093200
880.24	99.377777100
880.42	99.382087710
880.60	99.404861450
880.78	99.408233640
880.96	99.420257570
881.14	99.430229190
881.32	99.433486940
881.50	99.442611690
881.68	99.452003480
881.86	99.468048100
882.04	99.462951660
882.22	99.481292720
882.40	99.485130310
882.58	99.484977720
882.76	99.494651790
882.94	99.503875730
883.12	99.505332950
883.30	99.516311650
883.48	99.510749820
883.66	99.510047910
883.84	99.516426090
884.02	99.521362300
884.20	99.525123600
884.38	99.528007510
884.56	99.531486510
884.74	99.538787840
884.92	99.534637450
885.10	99.535820010
885.28	99.532386780
885.46	99.535057070
885.64	99.541381840
885.82	99.529006960
886.00	99.540382390
886.18	99.533004760
886.36	99.536888120
886.54	99.526420590
886.72	99.520072940
886.90	99.536773680
887.08	99.531684880
887.26	99.510635380
887.44	99.509399410
887.62	99.510620120
887.80	99.512153630
887.98	99.502006530
888.16	99.501129150
888.34	99.498878480
888.52	99.494804380
888.70	99.485549930
888.88	99.474014280
889.06	99.469001770
889.24	99.476020810
889.42	99.474868770
889.60	99.458183290
889.78	99.462814330
889.96	99.450805660
890.14	99.437644960
890.32	99.442405700
890.50	99.427497860
890.68	99.418525700
890.86	99.420127870
891.04	99.411186220
891.22	99.404045100
891.40	99.391105650
891.58	99.389007570
891.76	99.390007020
891.94	99.380065920
892.12	99.376213070
892.30	99.362297060
892.48	99.360557560
892.66	99.354583740
892.84	99.350769040
893.02	99.348716740
893.20	99.329032900
893.38	99.319770810
893.56	99.334663390
893.74	99.318923950
893.92	99.312561040
894.10	99.316390990
894.28	99.309410100
894.46	99.304321290
894.64	99.299011230
894.82	99.284629820
895.00	99.292030330
895.18	99.282417300
895.36	99.280059810
895.54	99.282951350
895.72	99.275367740
895.90	99.273643490
896.08	99.262611390
896.26	99.260055540
896.44	99.263053890
896.62	99.257568360
896.80	99.260299680
896.98	99.254707340
897.16	99.259124760
897.34	99.253211980
897.52	99.250564580
897.70	99.255287170
897.88	99.250572200
898.06	99.243202210
898.24	99.251083370
898.42	99.251350400
898.60	99.248214720
898.78	99.251953130
898.96	99.255355830
899.14	99.256698610
899.32	99.256309510
899.50	99.249000550
899.68	99.252044680
899.86	99.254241940
900.04	99.245155330
900.22	99.263008120
900.40	99.263381960
900.58	99.261566160
900.76	99.269676210
900.94	99.279579160
901.12	99.273597720
901.30	99.278434750
901.48	99.292518620
901.66	99.278549190
901.84	99.291297910
902.02	99.298980710
902.20	99.295104980
902.38	99.289192200
902.56	99.302246090
902.74	99.307746890
902.92	99.307876590
903.10	99.321815490
903.28	99.322441100
903.46	99.325820920
903.64	99.331733700
903.82	99.344596860
904.00	99.345130920
904.18	99.350593570
904.36	99.363067630
904.54	99.363830570
904.72	99.366798400
904.90	99.370536800
905.08	99.377441410
905.26	99.382278440
905.44	99.391105650
905.62	99.404098510
905.80	99.394874570
905.98	99.392456050
906.16	99.413368230
906.34	99.411819460
906.52	99.426254270
906.70	99.434074400
906.88	99.433326720
907.06	99.442665100
907.24	99.443801880
907.42	99.465614320
907.60	99.470863340
907.78	99.467979430
907.96	99.476539610
908.14	99.478408810
908.32	99.482582090
908.50	99.495574950
908.68	99.498886110
908.86	99.505409240
909.04	99.507423400
909.22	99.517341610
909.40	99.524574280
909.58	99.528129580
909.76	99.535163880
909.94	99.544982910
910.12	99.549011230
910.30	99.540725710
910.48	99.549644470
910.66	99.558647160
910.84	99.562995910
911.02	99.574043270
911.20	99.573776250
911.38	99.581451420
911.56	99.589622500
911.74	99.589630130
911.92	99.597473140
912.10	99.600311280
912.28	99.606803890
912.46	99.601783750
912.64	99.614257810
912.82	99.624046330
913.00	99.609207150
913.18	99.629508970
913.36	99.644241330
913.54	99.628067020
913.72	99.637222290
913.90	99.643257140
914.08	99.649688720
914.26	99.651878360
914.44	99.654067990
914.62	99.663772580
914.80	99.659683230
914.98	99.666145320
915.16	99.670204160
915.34	99.673698430
915.52	99.671463010
915.70	99.672958370
915.88	99.686882020
916.06	99.688034060
916.24	99.682060240
916.42	99.683151250
916.60	99.690101620
916.78	99.696937560
916.96	99.695625310
917.14	99.690727230
917.32	99.697402950
917.50	99.704895020
917.68	99.708404540
917.86	99.706909180
918.04	99.711799620
918.22	99.709220890
918.40	99.704177860
918.58	99.712753300
918.76	99.716392520
918.94	99.714698790
919.12	99.723419190
919.30	99.720664980
919.48	99.724479680
919.66	99.719024660
919.84	99.716911320
920.02	99.718254090
920.20	99.730262760
920.38	99.727149960
920.56	99.720352170
920.74	99.741706850
920.92	99.738365170
921.10	99.729713440
921.28	99.735107420
921.46	99.728736880
921.64	99.734725950
921.82	99.738243100
922.00	99.730949400
922.18	99.730155940
922.36	99.741729740
922.54	99.733131410
922.72	99.726814270
922.90	99.735473630
923.08	99.730674740
923.26	99.733963010
923.44	99.730247500
923.62	99.737991330
923.80	99.740043640
923.98	99.740058900
924.16	99.733055110
924.34	99.732994080
924.52	99.732238770
924.70	99.734970090
924.88	99.733215330
925.06	99.733581540
925.24	99.739807130
925.42	99.736007690
925.60	99.726417540
925.78	99.732192990
925.96	99.733772280
926.14	99.728515630
926.32	99.732955930
926.50	99.729957580
926.68	99.731117250
926.86	99.734321590
927.04	99.722686770
927.22	99.728355410
927.40	99.726722720
927.58	99.723434450
927.76	99.723571780
927.94	99.727958680
928.12	99.710754390
928.30	99.727020260
928.48	99.722023010
928.66	99.703826900
928.84	99.709358220
929.02	99.715835570
929.20	99.706176760
929.38	99.695053100
929.56	99.705184940
929.74	99.707275390
929.92	99.698928830
930.10	99.700721740
930.28	99.695625310
930.46	99.691192630
930.64	99.681053160
930.82	99.690078740
931.00	99.687789920
931.18	99.687942500
931.36	99.675590520
931.54	99.677558900
931.72	99.673126220
931.90	99.663383480
932.08	99.671623230
932.26	99.665466310
932.44	99.662269590
932.62	99.666099550
932.80	99.659873960
932.98	99.653221130
933.16	99.653999330
933.34	99.647209170
933.52	99.648376460
933.70	99.636932370
933.88	99.639358520
934.06	99.644691470
934.24	99.640876770
934.42	99.628623960
934.60	99.622253420
934.78	99.623619080
934.96	99.617630000
935.14	99.605598450
935.32	99.605514530
935.50	99.612190250
935.68	99.607803340
935.86	99.591423030
936.04	99.595077510
936.22	99.598274230
936.40	99.587913510
936.58	99.581069950
936.76	99.573936460
936.94	99.573905940
937.12	99.568542480
937.30	99.560012820
937.48	99.555480960
937.66	99.551216130
937.84	99.555122380
938.02	99.552619930
938.20	99.544845580
938.38	99.530578610
938.56	99.532600400
938.74	99.525634770
938.92	99.519691470
939.10	99.522537230
939.28	99.515884400
939.46	99.507728580
939.64	99.513412480
939.82	99.507987980
940.00	99.503822330
940.18	99.489471440
940.36	99.488090520
940.54	99.489562990
940.72	99.487426760
940.90	99.475898740
941.08	99.478706360
941.26	99.469848630
941.44	99.473030090
941.62	99.460495000
941.80	99.460128780
941.98	99.455688480
942.16	99.454727170
942.34	99.448387150
942.52	99.432159420
942.70	99.441459660
942.88	99.433586120
943.06	99.438850400
943.24	99.426010130
943.42	99.428199770
943.60	99.417221070
943.78	99.423912050
943.96	99.410537720
944.14	99.414878850
944.32	99.407867430
944.50	99.405876160
944.68	99.402198790
944.86	99.402168270
945.04	99.400016780
945.22	99.387176510
945.40	99.398376460
945.58	99.394493100
945.76	99.396575930
945.94	99.380226140
946.12	99.384101870
946.30	99.382659910
946.48	99.376403810
946.66	99.368461610
946.84	99.370124820
947.02	99.381530760
947.20	99.367744450
947.38	99.362411500
947.56	99.371002200
947.74	99.367515560
947.92	99.367866520
948.10	99.369743350
948.28	99.369003300
948.46	99.356117250
948.64	99.362686160
948.82	99.358596800
949.00	99.352699280
949.18	99.357925420
949.36	99.356933590
949.54	99.357658390
949.72	99.348655700
949.90	99.360374450
950.08	99.360427860
950.26	99.348579410
950.44	99.357864380
950.62	99.358840940
950.80	99.354942320
950.98	99.349388120
951.16	99.354866030
951.34	99.353729250
951.52	99.364242550
951.70	99.353752140
951.88	99.357917790
952.06	99.363029480
952.24	99.359802250
952.42	99.365463260
952.60	99.357025150
952.78	99.363616940
952.96	99.365097050
953.14	99.363670350
953.32	99.370285030
953.50	99.372322080
953.68	99.373023990
953.86	99.368705750
954.04	99.372558590
954.22	99.372367860
954.40	99.380882260
954.58	99.383773800
954.76	99.388893130
954.94	99.387306210
955.12	99.383506770
955.30	99.390823360
955.48	99.397636410
955.66	99.393531800
955.84	99.392662050
956.02	99.397621150
956.20	99.403854370
956.38	99.407165530
956.56	99.408599850
956.74	99.404350280
956.92	99.410865780
957.10	99.414909360
957.28	99.424003600
957.46	99.419349670
957.64	99.420455930
957.82	99.420837400
958.00	99.427070620
958.18	99.434440610
958.36	99.435997010
958.54	99.443809510
958.72	99.441413880
958.90	99.444229130
959.08	99.448043820
959.26	99.454902650
959.44	99.454589840
959.62	99.464286800
959.80	99.462783810
959.98	99.467529300
960.16	99.470962520
960.34	99.474945070
960.52	99.477363590
960.70	99.477508540
960.88	99.482803340
961.06	99.485916140
961.24	99.484382630
961.42	99.496467590
961.60	99.500717160
961.78	99.505210880
961.96	99.509880070
962.14	99.503540040
962.32	99.517562870
962.50	99.514701840
962.68	99.511077880
962.86	99.529190060
963.04	99.520133970
963.22	99.536254880
963.40	99.532432560
963.58	99.538894650
963.76	99.541732790
963.94	99.544105530
964.12	99.547149660
964.30	99.551345830
964.48	99.552406310
964.66	99.562545780
964.84	99.553604130
965.02	99.559371950
965.20	99.572357180
965.38	99.565208440
965.56	99.569885250
965.74	99.568824770
965.92	99.576652530
966.10	99.583808900
966.28	99.580039980
966.46	99.582550050
966.64	99.585800170
966.82	99.594757080
967.00	99.588409420
967.18	99.593994140
967.36	99.599044800
967.54	99.598678590
967.72	99.608886720
967.90	99.608337400
968.08	99.608650210
968.26	99.607604980
968.44	99.609878540
968.62	99.614288330
968.80	99.617759700
968.98	99.626953130
969.16	99.626640320
969.34	99.620979310
969.52	99.625732420
969.70	99.620742800
969.88	99.624389650
970.06	99.629875180
970.24	99.629486080
970.42	99.636611940
970.60	99.634963990
970.78	99.635520940
970.96	99.634880070
971.14	99.648323060
971.32	99.633224490
971.50	99.629737850
971.68	99.639709470
971.86	99.642410280
972.04	99.640701290
972.22	99.644889830
972.40	99.646011350
972.58	99.650314330
972.76	99.641075130
972.94	99.643264770
973.12	99.655509950
973.30	99.653854370
973.48	99.652252200
973.66	99.652145390
973.84	99.646369930
974.02	99.655120850
974.20	99.656707760
974.38	99.649261470
974.56	99.645240780
974.74	99.653160100
974.92	99.652229310
975.10	99.651214600
975.28	99.658065800
975.46	99.654045100
975.64	99.655494690
975.82	99.656486510
976.00	99.661979680
976.18	99.655593870
976.36	99.656333920
976.54	99.650756840
976.72	99.653144840
976.90	99.662117000
977.08	99.654876710
977.26	99.654663090
977.44	99.663627620
977.62	99.651000980
977.80	99.653434750
977.98	99.648704530
978.16	99.664779660
978.34	99.653121950
978.52	99.651649480
978.70	99.648193360
978.88	99.650550840
979.06	99.656311040
979.24	99.657432560
979.42	99.658752440
979.60	99.653114320
979.78	99.658210750
979.96	99.653862000
980.14	99.648460390
980.32	99.651794430
980.50	99.645317080
980.68	99.645576480
980.86	99.648712160
981.04	99.648651120
981.22	99.646774290
981.40	99.649154660
981.58	99.657394410
981.76	99.647346500
981.94	99.648139950
982.12	99.643669130
982.30	99.647972110
982.48	99.650558470
982.66	99.651382450
982.84	99.646751400
983.02	99.638153080
983.20	99.641784670
983.38	99.646972660
983.56	99.643218990
983.74	99.639472960
983.92	99.635658260
984.10	99.644828800
984.28	99.637092590
984.46	99.640625000
984.64	99.645057680
984.82	99.643424990
985.00	99.644218440
985.18	99.637832640
985.36	99.635574340
985.54	99.636955260
985.72	99.630912780
985.90	99.640274050
986.08	99.638786320
986.26	99.635452270
986.44	99.641159060
986.62	99.630805970
986.80	99.635353090
986.98	99.632827760
987.16	99.632270810
987.34	99.633964540
987.52	99.637329100
987.70	99.634475710
987.88	99.634819030
988.06	99.630058290
988.24	99.625717160
988.42	99.633811950
988.60	99.634529110
988.78	99.631927490
988.96	99.630203250
989.14	99.632606510
989.32	99.626998900
989.50	99.627838130
989.68	99.627540590
989.86	99.632171630
990.04	99.625984190
990.22	99.623695370
990.40	99.629005430
990.58	99.630577090
990.76	99.628585820
990.94	99.632331850
991.12	99.628898620
991.30	99.629768370
991.48	99.625045780
991.66	99.626892090
991.84	99.629524230
992.02	99.635055540
992.20	99.628952030
992.38	99.622444150
992.56	99.622741700
992.74	99.631828310
992.92	99.629302980
993.10	99.626167300
993.28	99.624237060
993.46	99.635131840
993.64	99.634025570
993.82	99.623603820
994.00	99.626373290
994.18	99.634925840
994.36	99.622848510
994.54	99.622756960
994.72	99.638084410
994.90	99.634872440
995.08	99.624481200
995.26	99.635688780
995.44	99.632102970
995.62	99.629989620
995.80	99.635826110
995.98	99.629058840
996.16	99.633377080
996.34	99.627899170
996.52	99.633995060
996.70	99.640876770
996.88	99.632713320
997.06	99.634124760
997.24	99.641677860
997.42	99.635765080
997.60	99.638748170
997.78	99.634758000
997.96	99.636932370
998.14	99.642448430
998.32	99.636253360
998.50	99.642196660
998.68	99.642868040
998.86	99.637619020
999.04	99.644798280
999.22	99.647430420
999.40	99.648612980
999.58	99.639694210
999.76	99.645599370
999.94	99.653259280
1000.12	99.645843510
1000.30	99.654388430
1000.48	99.652297970
1000.66	99.649444580
1000.84	99.654411320
1001.02	99.654968260
1001.20	99.660606380
1001.38	99.656372070
1001.56	99.656036380
1001.74	99.657951350
1001.92	99.664947510
1002.10	99.671836850
1002.28	99.660316470
1002.46	99.661926270
1002.64	99.670074460
1002.82	99.662612920
1003.00	99.668304440
1003.18	99.663986210
1003.36	99.667266850
1003.54	99.673118590
1003.72	99.674186710
1003.90	99.672958370
1004.08	99.671592710
1004.26	99.675415040
1004.44	99.675926210
1004.62	99.679985050
1004.80	99.679130550
1004.98	99.685127260
1005.16	99.683784480
1005.34	99.685112000
1005.52	99.688804630
1005.70	99.696807860
1005.88	99.693725590
1006.06	99.691055300
1006.24	99.690017700
1006.42	99.693260190
1006.60	99.694389340
1006.78	99.691101070
1006.96	99.701011660
1007.14	99.700561520
1007.32	99.702003480
1007.50	99.704826350
1007.68	99.699310300
1007.86	99.706375120
1008.04	99.706893920
1008.22	99.709236150
1008.40	99.718139650
1008.58	99.711189270
1008.76	99.715187070
1008.94	99.719406130
1009.12	99.713531490
1009.30	99.719383240
1009.48	99.718078610
1009.66	99.728584290
1009.84	99.727188110
1010.02	99.727333070
1010.20	99.728569030
1010.38	99.726417540
1010.56	99.741592410
1010.74	99.727218630
1010.92	99.741325380
1011.10	99.730873110
1011.28	99.744522090
1011.46	99.735130310
1011.64	99.736854550
1011.82	99.753341670
1012.00	99.739570620
1012.18	99.743629460
1012.36	99.752586360
1012.54	99.741455080
1012.72	99.753646850
1012.90	99.752349850
1013.08	99.757011410
1013.26	99.759864810
1013.44	99.751487730
1013.62	99.752220150
1013.80	99.755783080
1013.98	99.763122560
1014.16	99.758178710
1014.34	99.763526920
1014.52	99.766769410
1014.70	99.768135070
1014.88	99.760208130
1015.06	99.768318180
1015.24	99.775001530
1015.42	99.775772090
1015.60	99.775444030
1015.78	99.772109990
1015.96	99.775894170
1016.14	99.784210210
1016.32	99.776611330
1016.50	99.769653320
1016.68	99.781234740
1016.86	99.783287050
1017.04	99.789825440
1017.22	99.782226560
1017.40	99.779113770
1017.58	99.780311580
1017.76	99.786384580
1017.94	99.792808530
1018.12	99.786636350
1018.30	99.784881590
1018.48	99.790916440
1018.66	99.785209660
1018.84	99.799049380
1019.02	99.793983460
1019.20	99.795196530
1019.38	99.798828130
1019.56	99.801475520
1019.74	99.794090270
1019.92	99.796623230
1020.10	99.800613400
1020.28	99.812774660
1020.46	99.802513120
1020.64	99.803230290
1020.82	99.805725100
1021.00	99.803665160
1021.18	99.812225340
1021.36	99.803031920
1021.54	99.805824280
1021.72	99.800323490
1021.90	99.807929990
1022.08	99.807312010
1022.26	99.796730040
1022.44	99.808998110
1022.62	99.801521300
1022.80	99.814529420
1022.98	99.810859680
1023.16	99.800125120
1023.34	99.816017150
1023.52	99.810401920
1023.70	99.809387210
1023.88	99.813041690
1024.06	99.803947450
1024.24	99.811050420
1024.42	99.805671690
1024.60	99.815704350
1024.78	99.815422060
1024.96	99.805404660
1025.14	99.807518010
1025.32	99.809875490
1025.50	99.802902220
1025.68	99.809356690
1025.86	99.813606260
1026.04	99.817237850
1026.22	99.818542480
1026.40	99.810928340
1026.58	99.800361630
1026.76	99.804267880
1026.94	99.806457520
1027.12	99.807373050
1027.30	99.810638430
1027.48	99.804306030
1027.66	99.808197020
1027.84	99.805953980
1028.02	99.801429750
1028.20	99.806556700
1028.38	99.812339780
1028.56	99.807792660
1028.74	99.804618840
1028.92	99.809593200
1029.10	99.806228640
1029.28	99.804298400
1029.46	99.799484250
1029.64	99.804527280
1029.82	99.804481510
1030.00	99.799285890
1030.18	99.794891360
1030.36	99.800529480
1030.54	99.800521850
1030.72	99.801956180
1030.90	99.796279910
1031.08	99.791648860
1031.26	99.792556760
1031.44	99.793418880
1031.62	99.797035220
1031.80	99.793586730
1031.98	99.796775820
1032.16	99.793045040
1032.34	99.780242920
1032.52	99.785140990
1032.70	99.794616700
1032.88	99.787315370
1033.06	99.785324100
1033.24	99.778877260
1033.42	99.786476140
1033.60	99.786224370
1033.78	99.778495790
1033.96	99.777557370
1034.14	99.780868530
1034.32	99.770812990
1034.50	99.777267460
1034.68	99.776351930
1034.86	99.774459840
1035.04	99.774581910
1035.22	99.765197750
1035.40	99.759933470
1035.58	99.777328490
1035.76	99.768684390
1035.94	99.766990660
1036.12	99.758598330
1036.30	99.762519840
1036.48	99.761833190
1036.66	99.757843020
1036.84	99.759452820
1037.02	99.752311710
1037.20	99.753097530
1037.38	99.752021790
1037.56	99.747802730
1037.74	99.749221800
1037.92	99.743125920
1038.10	99.750068660
1038.28	99.746551510
1038.46	99.744682310
1038.64	99.756118770
1038.82	99.737083440
1039.00	99.738021850
1039.18	99.738380430
1039.36	99.746170040
1039.54	99.736366270
1039.72	99.731719970
1039.90	99.735893250
1040.08	99.722366330
1040.26	99.718933110
1040.44	99.734283450
1040.62	99.724868770
1040.80	99.725990300
1040.98	99.718826290
1041.16	99.715621950
1041.34	99.722457890
1041.52	99.711708070
1041.70	99.717124940
1041.88	99.705177310
1042.06	99.721488950
1042.24	99.709518430
1042.42	99.706794740
1042.60	99.720970150
1042.78	99.703392030
1042.96	99.706176760
1043.14	99.694458010
1043.32	99.704307560
1043.50	99.704673770
1043.68	99.694351200
1043.86	99.691864010
1044.04	99.686553960
1044.22	99.695701600
1044.40	99.698448180
1044.58	99.691932680
1044.76	99.688919070
1044.94	99.694320680
1045.12	99.691917420
1045.30	99.684616090
1045.48	99.687973020
1045.66	99.688133240
1045.84	99.690773010
1046.02	99.686637880
1046.20	99.678535460
1046.38	99.683380130
1046.56	99.683456420
1046.74	99.684890750
1046.92	99.679092410
1047.10	99.678810120
1047.28	99.676338200
1047.46	99.674842830
1047.64	99.678840640
1047.82	99.679565430
1048.00	99.673866270
1048.18	99.668769840
1048.36	99.659767150
1048.54	99.678680420
1048.72	99.673545840
1048.90	99.674613950
1049.08	99.667671200
1049.26	99.670974730
1049.44	99.667266850
1049.62	99.675590520
1049.80	99.663406370
1049.98	99.664459230
1050.16	99.666038510
1050.34	99.667610170
1050.52	99.670249940
1050.70	99.666931150
1050.88	99.670326230
1051.06	99.664070130
1051.24	99.653472900
1051.42	99.664825440
1051.60	99.667930600
1051.78	99.658683780
1051.96	99.663345340
1052.14	99.661872860
1052.32	99.662605290
1052.50	99.652648930
1052.68	99.657440190
1052.86	99.658134460
1053.04	99.658126830
1053.22	99.658874510
1053.40	99.660919190
1053.58	99.659545900
1053.76	99.653465270
1053.94	99.655326840
1054.12	99.652542110
1054.30	99.658706670
1054.48	99.662986760
1054.66	99.657234190
1054.84	99.653488160
1055.02	99.656951900
1055.20	99.657608030
1055.38	99.658958440
1055.56	99.652610780
1055.74	99.646362300
1055.92	99.653640750
1056.10	99.652687070
1056.28	99.649749760
1056.46	99.655899050
1056.64	99.658233640
1056.82	99.647247310
1057.00	99.646171570
1057.18	99.658752440
1057.36	99.656272890
1057.54	99.658279420
1057.72	99.648246770
1057.90	99.647315980
1058.08	99.662261960
1058.26	99.638336180
1058.44	99.649024960
1058.62	99.648918150
1058.80	99.655281070
1058.98	99.642532350
1059.16	99.649581910
1059.34	99.656463620
1059.52	99.654022220
1059.70	99.647079470
1059.88	99.641616820
1060.06	99.646347050
1060.24	99.649414060
1060.42	99.644485470
1060.60	99.655212400
1060.78	99.650917050
1060.96	99.655105590
1061.14	99.649971010
1061.32	99.638275150
1061.50	99.648498540
1061.68	99.651863100
1061.86	99.656639100
1062.04	99.646987920
1062.22	99.649497990
1062.40	99.656959530
1062.58	99.650680540
1062.76	99.659217830
1062.94	99.650283810
1063.12	99.650970460
1063.30	99.655029300
1063.48	99.651756290
1063.66	99.652175900
1063.84	99.653968810
1064.02	99.661781310
1064.20	99.650482180
1064.38	99.655212400
1064.56	99.659492490
1064.74	99.659408570
1064.92	99.654151920
1065.10	99.646469120
1065.28	99.662902830
1065.46	99.656303410
1065.64	99.648338320
1065.82	99.657760620
1066.00	99.668373110
1066.18	99.667137150
1066.36	99.655792240
1066.54	99.658927920
1066.72	99.662055970
1066.90	99.664947510
1067.08	99.658760070
1067.26	99.662841800
1067.44	99.670913700
1067.62	99.659606930
1067.80	99.659141540
1067.98	99.662239070
1068.16	99.676307680
1068.34	99.668632510
1068.52	99.666755680
1068.70	99.665367130
1068.88	99.674148560
1069.06	99.672668460
1069.24	99.674873350
1069.42	99.671981810
1069.60	99.675506590
1069.78	99.671615600
1069.96	99.669715880
1070.14	99.677932740
1070.32	99.676116940
1070.50	99.675346370
1070.68	99.678749080
1070.86	99.675163270
1071.04	99.686027530
1071.22	99.686035160
1071.40	99.678283690
1071.58	99.683715820
1071.76	99.684051510
1071.94	99.686058040
1072.12	99.677780150
1072.30	99.682373050
1072.48	99.687690730
1072.66	99.692199710
1072.84	99.693077090
1073.02	99.689201350
1073.20	99.698623660
1073.38	99.687561040
1073.56	99.688385010
1073.74	99.692543030
1073.92	99.689758300
1074.10	99.701805110
1074.28	99.698570250
1074.46	99.696571350
1074.64	99.697410580
1074.82	99.702064510
1075.00	99.698554990
1075.18	99.695411680
1075.36	99.700057980
1075.54	99.702301030
1075.72	99.706581120
1075.90	99.706878660
1076.08	99.710372920
1076.26	99.714576720
1076.44	99.697425840
1076.62	99.704811100
1076.80	99.705841060
1076.98	99.713005070
1077.16	99.711906430
1077.34	99.704757690
1077.52	99.714660640
1077.70	99.716217040
1077.88	99.712577820
1078.06	99.706222530
1078.24	99.717750550
1078.42	99.719474790
1078.60	99.714431760
1078.78	99.715637210
1078.96	99.722305300
1079.14	99.720840450
1079.32	99.722000120
1079.50	99.725952150
1079.68	99.719093320
1079.86	99.727874760
1080.04	99.724075320
1080.22	99.721679690
1080.40	99.723114010
1080.58	99.731895450
1080.76	99.729362490
1080.94	99.722061160
1081.12	99.733093260
1081.30	99.725708010
1081.48	99.730720520
1081.66	99.727523800
1081.84	99.728302000
1082.02	99.737693790
1082.20	99.738479610
1082.38	99.734710690
1082.56	99.738265990
1082.74	99.733886720
1082.92	99.735519410
1083.10	99.730751040
1083.28	99.735321040
1083.46	99.743011470
1083.64	99.739608760
1083.82	99.733306880
1084.00	99.732055660
1084.18	99.745254520
1084.36	99.742561340
1084.54	99.743331910
1084.72	99.741676330
1084.90	99.742576600
1085.08	99.732208250
1085.26	99.734413150
1085.44	99.746887210
1085.62	99.741973880
1085.80	99.744972230
1085.98	99.741729740
1086.16	99.737411500
1086.34	99.742652890
1086.52	99.741828920
1086.70	99.744644170
1086.88	99.739006040
1087.06	99.736335750
1087.24	99.738258360
1087.42	99.740028380
1087.60	99.738380430
1087.78	99.744590760
1087.96	99.742294310
1088.14	99.734291080
1088.32	99.730957030
1088.50	99.735206600
1088.68	99.736495970
1088.86	99.739784240
1089.04	99.730659480
1089.22	99.737464900
1089.40	99.737152100
1089.58	99.727508540
1089.76	99.727943420
1089.94	99.739822390
1090.12	99.740058900
1090.30	99.732711790
1090.48	99.718597410
1090.66	99.728187560
1090.84	99.735107420
1091.02	99.733093260
1091.20	99.728088380
1091.38	99.719726560
1091.56	99.721488950
1091.74	99.723007200
1091.92	99.723411560
1092.10	99.724372860
1092.28	99.720100400
1092.46	99.727485660
1092.64	99.721351620
1092.82	99.723220830
1093.00	99.713249210
1093.18	99.717971800
1093.36	99.716209410
1093.54	99.723205570
1093.72	99.716079710
1093.90	99.705543520
1094.08	99.710693360
1094.26	99.707023620
1094.44	99.711456300
1094.62	99.715415950
1094.80	99.707336430
1094.98	99.706382750
1095.16	99.706039430
1095.34	99.701873780
1095.52	99.703201290
1095.70	99.706039430
1095.88	99.704620360
1096.06	99.697669980
1096.24	99.694129940
1096.42	99.700057980
1096.60	99.707183840
1096.78	99.698997500
1096.96	99.696235660
1097.14	99.698760990
1097.32	99.709907530
1097.50	99.695144650
1097.68	99.687355040
1097.86	99.686798100
1098.04	99.695785520
1098.22	99.690719600
1098.40	99.684196470
1098.58	99.691116330
1098.76	99.683395390
1098.94	99.678848270
1099.12	99.684677120
1099.30	99.683151250
1099.48	99.686935420
1099.66	99.681243900
1099.84	99.673805240
1100.02	99.684295650
1100.20	99.683197020
1100.38	99.677452090
1100.56	99.678176880
1100.74	99.668106080
1100.92	99.678985600
